{
  "bib": {
    "title": " Measurement Of The Subthermal Neutron Induced Fission Cross-Section Of 241-Pu",
    "authors": [
      {
        "name": "C.Wagemans"
      },
      {
        "name": "P.Schillebeeckx"
      },
      {
        "name": "A.Deruytter"
      },
      {
        "name": "R.Barthelemy"
      }
    ],
    "institutes": [
      {
        "x4_code": "(2ZZZGEL)",
        "free_txt": []
      }
    ],
    "references": {
      "0": [
        {
          "x4_code": "(C,91JUELIC,,35,1991)",
          "free_txt": [
            " Main reference"
          ],
          "publication_year": "1991"
        },
        {
          "x4_code": "(C,90MARSEI,1,(III),9,1990)",
          "free_txt": [
            " prelim.results, including",
            " results of previous measurements on 233-U, 235-U and",
            " 239-Pu, see EXFOR 22080."
          ],
          "publication_year": "1990"
        }
      ]
    },
    "facility": {
      "0": [
        {
          "x4_code": "(LINAC,2ZZZGEL)",
          "free_txt": [
            " Geel electron linear accelerator,",
            " GELINA, operated at 40 Hz repetition rate with",
            " 2 micro-sec burst width and average electron current",
            " of 15 micro-Amp."
          ],
          "facility_type": "(LINAC)",
          "insitute": "(2ZZZGEL)"
        }
      ]
    },
    "history": [
      {
        "x4_code": "(19910709C)",
        "free_txt": [
          " S.W."
        ]
      },
      {
        "x4_code": "(20180311A)",
        "free_txt": [
          " SD:Updated to new date formats,lower case.",
          "Page was added to ref. 91JUELIC. MONITOR moved to",
          "Subent 002."
        ]
      },
      {
        "x4_code": "(20190919A)",
        "free_txt": [
          " SD: Corrections in Subent 002."
        ]
      }
    ]
  },
  "22193-001": {
    "extra_information": {
      "detector": {
        "0": [
          {
            "x4_code": "(SIBAR)",
            "free_txt": [
              " Two 30 cm2 large surface barrier detectors",
              " placed outside the neutron beam in a low geometry."
            ]
          }
        ]
      },
      "facility": {
        "0": [
          {
            "x4_code": "(LINAC,2ZZZGEL)",
            "free_txt": [
              " Geel electron linear accelerator,",
              " GELINA, operated at 40 Hz repetition rate with",
              " 2 micro-sec burst width and average electron current",
              " of 15 micro-Amp."
            ]
          }
        ]
      },
      "inc-source": {
        "0": [
          {
            "x4_code": "(PHOTO)",
            "free_txt": []
          }
        ]
      },
      "method": {
        "0": [
          {
            "x4_code": "(TOF)",
            "free_txt": [
              " 8.2m flight path"
            ]
          }
        ]
      },
      "sample": {
        "0": [
          {
            "x4_code": null,
            "free_txt": [
              ".A 27.2 micro-g/cm2 deposit of 241-Pu mounted back-to-",
              " back with an evaporated 25 micro-g/cm2 layer of 6-LiF",
              " in the center of a large vacuum chamber. The fissile",
              " deposit was prepared by suspension spraying of Pu-",
              " acetate, the 241-Pu solution being freshly separated",
              " from the 241-Am ingrowth. The isotopic composition was",
              "               238-Pu   0.0343 W/0",
              "               239-Pu   1.7708 W/0",
              "               240-Pu   6.8355 W/0",
              "               241-Pu  86.2809 W/0",
              "               242-Pu   5.0784 W/0",
              " two separate runs were performed with the neutron beam",
              " incident on both a Li-Pu and Pu-Li sandwich."
            ]
          }
        ]
      },
      "status": {
        "0": [
          {
            "x4_code": "(TABLE)",
            "free_txt": [
              " Data obtained from author on tape."
            ]
          }
        ]
      }
    }
  },
  "22193-002": {
    "reaction": {
      "0": {
        "x4_code": "(94-PU-241(N,F),,SIG)",
        "0": {
          "code": [
            "94-PU-241",
            [
              "N,F"
            ],
            ",,SIG"
          ],
          "type": null,
          "target": "94-PU-241",
          "process": "N,F",
          "sf49": ",,SIG",
          "sf4": null,
          "sf5": null,
          "sf6": "SIG",
          "sf7": null,
          "sf8": null,
          "sf9": null
        },
        "type": null,
        "free_text": ""
      }
    },
    "extra_information": {
      "correction": {
        "0": [
          {
            "x4_code": null,
            "free_txt": [
              ".Background correction determined using the black",
              " resonances of Cd, Rh, Au and W.",
              ".Background contribution due to neutrons in over-",
              " lapping bursts was checked by operating Gelina at",
              " 20 hz repetition rate.",
              ".Correction for 239-Pu(n,f) contribution made using",
              " data from (C,88MITO,,91,1988) in EXFOR 22080004.",
              ".data normalized to sigf-0 value of 1013 +- 7 b taken",
              " from ENDF/B-VI."
            ]
          }
        ]
      },
      "err-analys": {
        "0": [
          {
            "x4_code": "(DATA-ERR)",
            "free_txt": [
              " No information about source of uncertainties"
            ]
          }
        ]
      },
      "monitor": {
        "0": [
          {
            "x4_code": "(3-LI-6(N,T)2-HE-4,,SIG)",
            "free_txt": [
              " A 1/v-shape was adopted.",
              " Value is given after linear least-squares fit of",
              "sigma(E)*sqrt(E) between 20 and 30 meV"
            ]
          }
        ]
      },
      "status": {
        "0": [
          {
            "x4_code": "(TABLE)",
            "free_txt": [
              " Data obtained from author on tape."
            ]
          }
        ]
      }
    },
    "common": {
      "heads": [
        "EN-NRM",
        "MONIT",
        "MONIT-ERR"
      ],
      "units": [
        "EV",
        "B",
        "B"
      ],
      "data": [
        [
          0.0253
        ],
        [
          1013.0
        ],
        [
          7.0
        ]
      ]
    },
    "data": {
      "heads": [
        "EN",
        "DATA",
        "DATA-ERR"
      ],
      "units": [
        "EV",
        "B",
        "B"
      ],
      "data": [
        [
          0.0020044,
          0.0020104,
          0.0020164,
          0.0020226,
          0.0020287,
          0.0020349,
          0.0020411,
          0.0020472,
          0.0020535,
          0.0020597,
          0.002066,
          0.0020722,
          0.0020786,
          0.002085,
          0.0020913,
          0.0020978,
          0.0021043,
          0.0021107,
          0.0021172,
          0.0021238,
          0.0021304,
          0.002137,
          0.0021436,
          0.0021503,
          0.0021569,
          0.0021637,
          0.0021705,
          0.0021773,
          0.0021842,
          0.0021909,
          0.0021978,
          0.0022048,
          0.0022117,
          0.0022187,
          0.0022258,
          0.0022328,
          0.0022399,
          0.0022471,
          0.0022542,
          0.0022614,
          0.0022687,
          0.0022759,
          0.0022832,
          0.0022906,
          0.0022979,
          0.0023053,
          0.0023127,
          0.0023201,
          0.0023277,
          0.0023352,
          0.0023427,
          0.0023504,
          0.0023582,
          0.0023658,
          0.0023734,
          0.0023812,
          0.002389,
          0.0023969,
          0.0024048,
          0.0024127,
          0.0024206,
          0.0024287,
          0.0024367,
          0.0024447,
          0.0024529,
          0.002461,
          0.0024693,
          0.0024776,
          0.0024858,
          0.0024941,
          0.0025024,
          0.0025109,
          0.0025193,
          0.0025279,
          0.0025364,
          0.002545,
          0.0025536,
          0.0025623,
          0.0025711,
          0.0025798,
          0.0025886,
          0.0025974,
          0.0026064,
          0.0026153,
          0.0026243,
          0.0026333,
          0.0026424,
          0.0026515,
          0.0026606,
          0.0026698,
          0.0026791,
          0.0026884,
          0.0026978,
          0.0027072,
          0.0027167,
          0.0027263,
          0.0027359,
          0.0027455,
          0.0027551,
          0.0027648,
          0.0027746,
          0.0027844,
          0.0027943,
          0.0028042,
          0.0028142,
          0.0028243,
          0.0028343,
          0.0028445,
          0.0028547,
          0.0028649,
          0.0028752,
          0.0028857,
          0.002896,
          0.0029064,
          0.002917,
          0.0029275,
          0.0029382,
          0.002949,
          0.0029597,
          0.0029706,
          0.0029814,
          0.0029923,
          0.0030032,
          0.0030143,
          0.0030254,
          0.0030367,
          0.003048,
          0.0030592,
          0.0030706,
          0.0030821,
          0.0030936,
          0.003105,
          0.0031167,
          0.0031285,
          0.0031402,
          0.003152,
          0.0031639,
          0.0031759,
          0.003188,
          0.0032001,
          0.0032122,
          0.0032244,
          0.0032367,
          0.0032491,
          0.0032616,
          0.0032741,
          0.0032866,
          0.0032993,
          0.003312,
          0.0033248,
          0.0033377,
          0.0033507,
          0.0033637,
          0.0033769,
          0.00339,
          0.0034033,
          0.0034167,
          0.0034302,
          0.0034436,
          0.0034572,
          0.0034708,
          0.0034846,
          0.0034984,
          0.0035124,
          0.0035264,
          0.0035404,
          0.0035545,
          0.0035688,
          0.0035832,
          0.0035976,
          0.0036121,
          0.0036267,
          0.0036413,
          0.0036561,
          0.003671,
          0.0036859,
          0.003701,
          0.0037161,
          0.0037313,
          0.0037466,
          0.0037621,
          0.0037776,
          0.0037933,
          0.0038089,
          0.0038247,
          0.0038406,
          0.0038567,
          0.0038728,
          0.0038889,
          0.0039053,
          0.0039217,
          0.0039382,
          0.0039549,
          0.0039715,
          0.0039883,
          0.0040053,
          0.0040223,
          0.0040394,
          0.0040568,
          0.0040741,
          0.0040916,
          0.0041092,
          0.0041269,
          0.0041447,
          0.0041626,
          0.0041807,
          0.0041989,
          0.0042173,
          0.0042357,
          0.0042541,
          0.0042728,
          0.0042916,
          0.0043104,
          0.0043295,
          0.0043487,
          0.004368,
          0.0043874,
          0.0044069,
          0.0044266,
          0.0044465,
          0.0044664,
          0.0044865,
          0.0045067,
          0.004527,
          0.0045475,
          0.0045681,
          0.0045888,
          0.0046097,
          0.0046308,
          0.0046521,
          0.0046733,
          0.0046948,
          0.0047165,
          0.0047382,
          0.0047601,
          0.0047822,
          0.0048045,
          0.0048269,
          0.0048494,
          0.0048722,
          0.0048951,
          0.0049182,
          0.0049413,
          0.0049647,
          0.0049883,
          0.0050119,
          0.0050357,
          0.0050597,
          0.005084,
          0.0051084,
          0.0051329,
          0.0051577,
          0.0051826,
          0.0052077,
          0.005233,
          0.0052584,
          0.0052841,
          0.0053098,
          0.0053358,
          0.0053621,
          0.0053886,
          0.0054152,
          0.005442,
          0.005469,
          0.0054963,
          0.0055236,
          0.0055511,
          0.005579,
          0.005607,
          0.0056353,
          0.0056638,
          0.0056925,
          0.0057214,
          0.0057505,
          0.0057798,
          0.0058093,
          0.0058391,
          0.0058692,
          0.0058994,
          0.00593,
          0.0059606,
          0.0059915,
          0.0060227,
          0.0060542,
          0.006086,
          0.0061179,
          0.0061501,
          0.0061826,
          0.0062154,
          0.0062483,
          0.0062815,
          0.006315,
          0.0063488,
          0.0063828,
          0.0064171,
          0.0064517,
          0.0064866,
          0.0065216,
          0.0065571,
          0.0065929,
          0.006629,
          0.0066653,
          0.0067019,
          0.0067388,
          0.0067759,
          0.0068135,
          0.0068515,
          0.0068896,
          0.006928,
          0.0069668,
          0.007006,
          0.0070456,
          0.0070853,
          0.0071255,
          0.007166,
          0.0072067,
          0.0072479,
          0.0072895,
          0.0073314,
          0.0073736,
          0.0074162,
          0.0074592,
          0.0075026,
          0.0075464,
          0.0075905,
          0.0076349,
          0.0076798,
          0.0077252,
          0.007771,
          0.0078171,
          0.0078636,
          0.0079105,
          0.0079579,
          0.0080057,
          0.008054,
          0.0081027,
          0.0081517,
          0.0082012,
          0.0082513,
          0.0083018,
          0.0083527,
          0.008404,
          0.0084559,
          0.0085082,
          0.0085611,
          0.0086145,
          0.0086684,
          0.0087227,
          0.0087776,
          0.0088328,
          0.0088888,
          0.0089453,
          0.0090022,
          0.0090597,
          0.0091177,
          0.0091763,
          0.0092356,
          0.0092954,
          0.0093558,
          0.0094167,
          0.0094782,
          0.0095404,
          0.0096031,
          0.0096665,
          0.0097306,
          0.0097952,
          0.0098605,
          0.0099264,
          0.0099931,
          0.01006,
          0.010128,
          0.010197,
          0.010266,
          0.010336,
          0.010407,
          0.010479,
          0.010551,
          0.010624,
          0.010698,
          0.010772,
          0.010848,
          0.010924,
          0.011001,
          0.011079,
          0.011157,
          0.011236,
          0.011317,
          0.011398,
          0.01148,
          0.011563,
          0.011647,
          0.011731,
          0.011817,
          0.011903,
          0.011991,
          0.012079,
          0.012169,
          0.012259,
          0.012351,
          0.012443,
          0.012537,
          0.012631,
          0.012727,
          0.012824,
          0.012922,
          0.013021,
          0.013121,
          0.013222,
          0.013325,
          0.013429,
          0.013533,
          0.01364,
          0.013747,
          0.013856,
          0.013966,
          0.014077,
          0.01419,
          0.014304,
          0.014419,
          0.014536,
          0.014654,
          0.014773,
          0.014894,
          0.015017,
          0.015141,
          0.015267,
          0.015394,
          0.015523,
          0.015653,
          0.015785,
          0.015919,
          0.016055,
          0.016192,
          0.016331,
          0.016472,
          0.016614,
          0.016759,
          0.016905,
          0.017053,
          0.017203,
          0.017356,
          0.01751,
          0.017666,
          0.017825,
          0.017985,
          0.018148,
          0.018313,
          0.01848,
          0.01865,
          0.018822,
          0.018996,
          0.019173,
          0.019352,
          0.019534,
          0.019718,
          0.019905,
          0.020094,
          0.020287,
          0.020482,
          0.02068,
          0.02088,
          0.021084,
          0.021291,
          0.0215,
          0.021713,
          0.021929,
          0.022149,
          0.022371,
          0.022597,
          0.022827,
          0.02306,
          0.023296,
          0.023536,
          0.02378,
          0.024028,
          0.024279,
          0.024535,
          0.024795,
          0.025058,
          0.025326,
          0.025599,
          0.025875,
          0.026157,
          0.026357,
          0.026475,
          0.026593,
          0.026713,
          0.026833,
          0.026954,
          0.027076,
          0.027199,
          0.027322,
          0.027447,
          0.027572,
          0.027698,
          0.027825,
          0.027953,
          0.028082,
          0.028211,
          0.028342,
          0.028473,
          0.028606,
          0.028739,
          0.028873,
          0.029008,
          0.029145,
          0.029282,
          0.02942,
          0.029559,
          0.029699,
          0.02984,
          0.029982,
          0.030125,
          0.030269,
          0.030414,
          0.03056,
          0.030707,
          0.030856,
          0.031005,
          0.031155,
          0.031307,
          0.031459,
          0.031613,
          0.031768,
          0.031924,
          0.032081,
          0.03224,
          0.032399,
          0.03256,
          0.032722,
          0.032885,
          0.033049,
          0.033215,
          0.033381,
          0.033549,
          0.033719,
          0.033889,
          0.034061,
          0.034234,
          0.034409,
          0.034585,
          0.034762,
          0.034941,
          0.035121,
          0.035302,
          0.035485,
          0.035669,
          0.035855,
          0.036042,
          0.036231,
          0.036421,
          0.036612,
          0.036805,
          0.037,
          0.037196,
          0.037394,
          0.037593,
          0.037794,
          0.037996,
          0.038201,
          0.038406,
          0.038614,
          0.038823,
          0.039034,
          0.039246,
          0.039461,
          0.039677,
          0.039895,
          0.040114,
          0.040336,
          0.040559,
          0.040784,
          0.041011,
          0.04124,
          0.041471,
          0.041704,
          0.041939,
          0.042176,
          0.042414,
          0.042655,
          0.042898,
          0.043143,
          0.04339,
          0.043639,
          0.043891,
          0.044144,
          0.0444,
          0.044658,
          0.044918,
          0.045181,
          0.045445,
          0.045712,
          0.045982,
          0.046254,
          0.046528,
          0.046805,
          0.047084,
          0.047366,
          0.04765,
          0.047937,
          0.048226,
          0.048518,
          0.048813,
          0.049111,
          0.049411,
          0.049714,
          0.050019,
          0.050328,
          0.050639,
          0.050954,
          0.051271,
          0.051591,
          0.051914,
          0.05224,
          0.05257,
          0.052902,
          0.053238,
          0.053577,
          0.053919,
          0.054264,
          0.054613,
          0.054965,
          0.05532,
          0.055679,
          0.056042,
          0.056408,
          0.056777,
          0.057151,
          0.057527,
          0.057908,
          0.058293,
          0.058681,
          0.059073,
          0.059469,
          0.059869,
          0.060274,
          0.060682,
          0.061094,
          0.061511,
          0.061932,
          0.062357,
          0.062787,
          0.063221,
          0.06366,
          0.064103,
          0.064551,
          0.065003,
          0.065461,
          0.065923,
          0.06639,
          0.066862,
          0.067339,
          0.067822,
          0.068309,
          0.068802,
          0.0693,
          0.069803,
          0.070313,
          0.070827,
          0.071348,
          0.071874,
          0.072406,
          0.072943,
          0.073487,
          0.074037,
          0.074593,
          0.075156,
          0.075725,
          0.0763,
          0.076882,
          0.07747,
          0.078066,
          0.078668,
          0.079277,
          0.079894,
          0.080517,
          0.081148,
          0.081786,
          0.082432,
          0.083086,
          0.083747,
          0.084417,
          0.085094,
          0.085779,
          0.086473,
          0.087176,
          0.087887,
          0.088606,
          0.089335,
          0.090072,
          0.090819,
          0.091575,
          0.092341,
          0.093116,
          0.093901,
          0.094696,
          0.095501,
          0.096316,
          0.097142,
          0.097979,
          0.098826,
          0.099684,
          0.10055,
          0.10144,
          0.10233,
          0.10323,
          0.10415,
          0.10508,
          0.10602,
          0.10697,
          0.10794,
          0.10892,
          0.10991,
          0.11092,
          0.11194,
          0.11298,
          0.11403,
          0.11509,
          0.11617,
          0.11727,
          0.11838,
          0.1195,
          0.12064,
          0.1218,
          0.12298,
          0.12417,
          0.12538,
          0.12661,
          0.12785,
          0.12912,
          0.1304,
          0.1317,
          0.13303,
          0.13437,
          0.13573,
          0.13711,
          0.13852,
          0.13995,
          0.14139,
          0.14249,
          0.14323,
          0.14398,
          0.14473,
          0.14549,
          0.14626,
          0.14703,
          0.1478,
          0.14859,
          0.14938,
          0.15017,
          0.15097,
          0.15178,
          0.1526,
          0.15342,
          0.15425,
          0.15508,
          0.15592,
          0.15677,
          0.15763,
          0.15849,
          0.15936,
          0.16024,
          0.16112,
          0.16201,
          0.16291,
          0.16382,
          0.16473,
          0.16565,
          0.16658,
          0.16752,
          0.16847,
          0.16942,
          0.17038,
          0.17135,
          0.17233,
          0.17331,
          0.17431,
          0.17531,
          0.17632,
          0.17734,
          0.17837,
          0.17941,
          0.18046,
          0.18152,
          0.18258,
          0.18366,
          0.18474,
          0.18584,
          0.18694,
          0.18806,
          0.18918,
          0.19032,
          0.19146,
          0.19262,
          0.19378,
          0.19496,
          0.19614,
          0.19734,
          0.19855,
          0.19977,
          0.201,
          0.20225,
          0.2035,
          0.20477,
          0.20604,
          0.20733,
          0.20864,
          0.20995,
          0.21128,
          0.21262,
          0.21397,
          0.21533,
          0.21671,
          0.2181,
          0.21951,
          0.22093,
          0.22236,
          0.2238,
          0.22526,
          0.22674,
          0.22823,
          0.22973,
          0.23125,
          0.23279,
          0.23433,
          0.2359,
          0.23748,
          0.23908,
          0.24069,
          0.24232,
          0.24396,
          0.24563,
          0.24731,
          0.249,
          0.25072,
          0.25245,
          0.2542,
          0.25597,
          0.25775,
          0.25956,
          0.26138,
          0.26323,
          0.26509,
          0.26698,
          0.26888,
          0.2708,
          0.27275,
          0.27471,
          0.2767,
          0.27871,
          0.28074,
          0.28279,
          0.28487,
          0.28697,
          0.28909,
          0.29123,
          0.2934,
          0.2956,
          0.29782,
          0.30006,
          0.30233,
          0.30462,
          0.30694,
          0.30929,
          0.31167,
          0.31407,
          0.3165,
          0.31896,
          0.32144,
          0.32396,
          0.32651,
          0.32908,
          0.33169,
          0.33433,
          0.337,
          0.3397,
          0.34243,
          0.3452,
          0.348,
          0.35083,
          0.3537,
          0.35661,
          0.35955,
          0.36253,
          0.36554,
          0.3686,
          0.37169,
          0.37482,
          0.37799,
          0.3812,
          0.38445,
          0.38774,
          0.39108,
          0.39445,
          0.39788,
          0.40134,
          0.40486,
          0.40842,
          0.41202,
          0.41568,
          0.41938,
          0.42313,
          0.42694,
          0.43079,
          0.4347,
          0.43866,
          0.44268,
          0.44675,
          0.45087,
          0.45506,
          0.4593,
          0.4636,
          0.46797,
          0.47239,
          0.47688,
          0.48143,
          0.48605,
          0.49074,
          0.49549,
          0.50031,
          0.5052,
          0.51017,
          0.51521,
          0.52032,
          0.52551,
          0.53078,
          0.53613,
          0.54156,
          0.54707,
          0.55267,
          0.55835,
          0.56412,
          0.56998,
          0.57594,
          0.58198,
          0.58812,
          0.59436,
          0.6007,
          0.60715,
          0.61369,
          0.62035,
          0.62711,
          0.63398,
          0.64097,
          0.64807,
          0.65529,
          0.66263,
          0.6701,
          0.67769,
          0.68541,
          0.69327,
          0.70126,
          0.70939,
          0.71767,
          0.72608,
          0.73465,
          0.74337,
          0.75225,
          0.76128,
          0.77048,
          0.77985,
          0.78939,
          0.79911,
          0.809,
          0.81909,
          0.82936,
          0.83982,
          0.85049,
          0.86136,
          0.87243,
          0.88373,
          0.89524,
          0.90698,
          0.91896,
          0.93117,
          0.94363,
          0.95634,
          0.96931,
          0.98254,
          0.99604,
          1.0098,
          1.0239,
          1.0383,
          1.053,
          1.0679,
          1.0833,
          1.0989,
          1.1149,
          1.1312,
          1.1479,
          1.165,
          1.1824,
          1.2003,
          1.2185,
          1.2372,
          1.2491,
          1.2539,
          1.2587,
          1.2636,
          1.2684,
          1.2734,
          1.2783,
          1.2833,
          1.2883,
          1.2933,
          1.2984,
          1.3035,
          1.3086,
          1.3137,
          1.3189,
          1.3241,
          1.3294,
          1.3347,
          1.34,
          1.3453,
          1.3507,
          1.3561,
          1.3615,
          1.367,
          1.3725,
          1.378,
          1.3836,
          1.3892,
          1.3948,
          1.4005,
          1.4062,
          1.4119,
          1.4177,
          1.4235,
          1.4294,
          1.4352,
          1.4412,
          1.4471,
          1.4531,
          1.4591,
          1.4652,
          1.4713,
          1.4775,
          1.4836,
          1.4899,
          1.4961,
          1.5024,
          1.5088,
          1.5151,
          1.5216,
          1.528,
          1.5345,
          1.5411,
          1.5477,
          1.5543,
          1.561,
          1.5677,
          1.5744,
          1.5812,
          1.5881,
          1.595,
          1.6019,
          1.6089,
          1.6159,
          1.623,
          1.6301,
          1.6373,
          1.6445,
          1.6517,
          1.659,
          1.6664,
          1.6738,
          1.6813,
          1.6888,
          1.6963,
          1.7039,
          1.7116,
          1.7193,
          1.7271,
          1.7349,
          1.7427,
          1.7507,
          1.7586,
          1.7667,
          1.7747,
          1.7829,
          1.7911,
          1.7993,
          1.8077,
          1.816,
          1.8244,
          1.8329,
          1.8415,
          1.8501,
          1.8588,
          1.8675,
          1.8763,
          1.8851,
          1.894,
          1.903,
          1.912,
          1.9212,
          1.9303,
          1.9396,
          1.9489,
          1.9582,
          1.9677,
          1.9772,
          1.9867,
          1.9964,
          2.0061,
          2.0159,
          2.0258,
          2.0357,
          2.0457,
          2.0558,
          2.0659,
          2.0761,
          2.0864,
          2.0968,
          2.1073,
          2.1178,
          2.1284,
          2.1391,
          2.1499,
          2.1608,
          2.1717,
          2.1827,
          2.1938,
          2.205,
          2.2163,
          2.2277,
          2.2391,
          2.2507,
          2.2623,
          2.274,
          2.2858,
          2.2977,
          2.3097,
          2.3218,
          2.334,
          2.3463,
          2.3587,
          2.3712,
          2.3838,
          2.3964,
          2.4092,
          2.4221,
          2.4351,
          2.4482,
          2.4614,
          2.4747,
          2.4881,
          2.5016,
          2.5152,
          2.529,
          2.5428,
          2.5568,
          2.5709,
          2.5851,
          2.5994,
          2.6139,
          2.6284,
          2.6431,
          2.6579,
          2.6729,
          2.6879,
          2.7031,
          2.7184,
          2.7339,
          2.7494,
          2.7652,
          2.781,
          2.797,
          2.8131,
          2.8294,
          2.8458,
          2.8623,
          2.879,
          2.8958,
          2.9128,
          2.93,
          2.9473,
          2.9647,
          2.9823,
          3.0,
          3.0179,
          3.036,
          3.0543,
          3.0727,
          3.0912,
          3.11,
          3.1289,
          3.1479,
          3.1672,
          3.1866,
          3.2062,
          3.226,
          3.246,
          3.2662,
          3.2865,
          3.3071,
          3.3278,
          3.3487,
          3.3698,
          3.3912,
          3.4127,
          3.4344,
          3.4564,
          3.4785,
          3.5009,
          3.5235,
          3.5463,
          3.5693,
          3.5926,
          3.6161,
          3.6398,
          3.6637,
          3.6879,
          3.7123,
          3.737,
          3.7619,
          3.7871,
          3.8125,
          3.8382,
          3.8641,
          3.8903,
          3.9168,
          3.9435,
          3.9705,
          3.9978,
          4.0254
        ],
        [
          3451.1,
          3246.6,
          3811.3,
          2997.5,
          3006.2,
          3735.8,
          3255.0,
          4397.4,
          3118.4,
          3278.1,
          4157.9,
          3578.8,
          3896.0,
          3693.8,
          3332.2,
          3840.8,
          3699.4,
          3551.5,
          3167.5,
          3178.8,
          3100.5,
          3465.0,
          3462.2,
          3607.6,
          3597.4,
          3083.1,
          2764.1,
          2976.5,
          3211.9,
          3486.1,
          4319.6,
          3944.8,
          3979.3,
          3942.0,
          3235.7,
          3890.6,
          4093.8,
          3458.2,
          3487.6,
          3625.6,
          3816.9,
          3620.6,
          3681.6,
          3298.4,
          3298.8,
          4007.9,
          3393.0,
          3604.3,
          3203.4,
          3299.7,
          3197.4,
          3532.2,
          3072.9,
          3716.8,
          3197.2,
          3234.9,
          3100.1,
          3675.6,
          3726.1,
          2679.5,
          3545.2,
          3160.9,
          3032.4,
          3652.7,
          2952.6,
          3074.4,
          3585.1,
          3707.2,
          3324.1,
          3655.3,
          3473.9,
          2885.5,
          3058.4,
          3289.3,
          3245.5,
          3053.8,
          3356.1,
          3254.2,
          3325.5,
          3307.9,
          2996.1,
          3915.6,
          3731.2,
          2993.6,
          2968.1,
          3014.4,
          3097.5,
          3285.4,
          2673.0,
          3232.7,
          3306.2,
          3095.5,
          3276.4,
          3074.0,
          2674.4,
          2808.1,
          2950.9,
          3435.9,
          3001.5,
          3197.4,
          2777.5,
          3352.4,
          3016.8,
          3236.2,
          3136.5,
          3324.5,
          2795.0,
          2795.3,
          3086.4,
          3419.4,
          2765.6,
          3053.5,
          3244.1,
          2704.8,
          3376.3,
          2979.0,
          3037.1,
          3145.3,
          2844.2,
          2638.5,
          3524.5,
          3078.8,
          2960.3,
          3005.4,
          3243.4,
          2968.0,
          2778.2,
          3109.3,
          3048.6,
          3508.6,
          3097.7,
          3029.3,
          2491.2,
          2747.4,
          2884.6,
          2886.3,
          2945.6,
          3260.4,
          2910.3,
          3274.1,
          2978.3,
          2913.8,
          2801.1,
          2860.8,
          2968.5,
          3063.4,
          2734.0,
          2761.6,
          2930.7,
          2654.3,
          2794.7,
          2928.8,
          2671.0,
          3013.9,
          3041.5,
          2780.6,
          2523.9,
          2502.1,
          2694.5,
          2685.9,
          2612.9,
          2555.4,
          2820.2,
          2462.0,
          2687.7,
          2614.9,
          2981.1,
          2834.3,
          2624.8,
          2487.7,
          2974.7,
          2829.1,
          2697.7,
          2970.6,
          2715.7,
          2756.4,
          2931.5,
          2885.7,
          2733.3,
          2855.6,
          2738.9,
          2614.9,
          2739.3,
          2714.9,
          2572.4,
          2724.9,
          2735.0,
          2606.9,
          2661.0,
          2402.8,
          2691.6,
          2650.1,
          2564.6,
          2435.2,
          2605.7,
          2571.1,
          2687.2,
          2733.1,
          2669.7,
          2614.8,
          2759.1,
          2348.7,
          2671.4,
          2618.7,
          2489.9,
          2792.4,
          2529.7,
          2513.5,
          2573.9,
          2507.5,
          2642.0,
          2571.8,
          2467.0,
          2461.1,
          2238.3,
          2417.1,
          2376.4,
          2479.0,
          2520.9,
          2287.8,
          2619.2,
          2572.7,
          2311.1,
          2389.7,
          2241.1,
          2304.2,
          2364.3,
          2345.5,
          2314.8,
          2283.2,
          2514.4,
          2384.9,
          2311.0,
          2310.0,
          2620.9,
          2293.1,
          2400.6,
          2461.3,
          2246.4,
          2383.5,
          2321.3,
          2296.4,
          2306.7,
          2277.7,
          2324.0,
          2151.4,
          2291.8,
          2204.5,
          2194.6,
          2325.0,
          2358.7,
          2360.1,
          2131.5,
          2170.5,
          2166.1,
          2160.8,
          2402.4,
          2125.6,
          2207.0,
          2172.2,
          2206.1,
          2272.9,
          2228.9,
          2143.1,
          2207.9,
          2108.4,
          2151.6,
          2137.4,
          2101.4,
          2077.2,
          2129.0,
          2208.6,
          2052.3,
          2097.3,
          2097.2,
          2055.2,
          2111.2,
          2268.5,
          2073.8,
          2111.2,
          1989.3,
          2156.8,
          2093.3,
          1941.1,
          2157.0,
          2219.4,
          2077.5,
          2325.2,
          2057.7,
          1982.4,
          1996.9,
          1993.1,
          2130.1,
          2084.6,
          2036.7,
          1889.8,
          2060.3,
          2055.5,
          1974.3,
          1901.3,
          1897.7,
          1896.3,
          2059.9,
          1910.5,
          1956.9,
          1942.6,
          1974.1,
          2066.4,
          1956.5,
          1901.3,
          1993.4,
          1813.3,
          1839.2,
          1875.7,
          1861.8,
          1888.8,
          1951.7,
          1993.0,
          1852.3,
          1970.9,
          2011.7,
          1722.1,
          1907.3,
          1912.1,
          1866.4,
          1816.9,
          1871.4,
          1821.5,
          1855.4,
          1951.9,
          1906.8,
          1819.3,
          1751.0,
          1817.9,
          1939.0,
          1812.5,
          1849.9,
          1878.0,
          1769.8,
          1802.3,
          1819.4,
          1669.3,
          1871.3,
          1695.0,
          1839.1,
          1673.0,
          1764.7,
          1685.0,
          1693.5,
          1694.5,
          1722.3,
          1734.7,
          1695.7,
          1708.7,
          1654.9,
          1804.2,
          1695.3,
          1655.3,
          1686.6,
          1582.3,
          1610.4,
          1679.7,
          1725.7,
          1713.4,
          1669.7,
          1647.9,
          1639.0,
          1595.0,
          1615.2,
          1609.1,
          1622.7,
          1608.0,
          1705.3,
          1630.7,
          1504.5,
          1588.1,
          1522.5,
          1616.8,
          1557.2,
          1557.9,
          1596.8,
          1615.0,
          1470.2,
          1538.2,
          1571.8,
          1538.1,
          1604.3,
          1521.3,
          1568.5,
          1504.3,
          1512.1,
          1493.5,
          1527.5,
          1538.9,
          1540.9,
          1446.2,
          1414.0,
          1416.5,
          1439.2,
          1522.5,
          1423.5,
          1392.5,
          1479.2,
          1360.9,
          1396.9,
          1382.7,
          1393.4,
          1380.1,
          1414.7,
          1385.6,
          1374.7,
          1380.8,
          1372.1,
          1363.2,
          1440.1,
          1362.4,
          1379.8,
          1315.6,
          1348.7,
          1376.3,
          1344.9,
          1302.2,
          1342.1,
          1297.4,
          1305.7,
          1305.7,
          1328.2,
          1264.6,
          1294.2,
          1267.7,
          1266.0,
          1276.2,
          1266.5,
          1242.4,
          1228.3,
          1241.4,
          1248.3,
          1211.4,
          1249.4,
          1232.2,
          1217.2,
          1196.9,
          1240.4,
          1265.4,
          1186.8,
          1241.5,
          1205.0,
          1173.5,
          1206.7,
          1175.8,
          1187.4,
          1183.3,
          1176.2,
          1193.0,
          1131.4,
          1156.6,
          1168.7,
          1100.4,
          1133.5,
          1141.5,
          1130.2,
          1103.4,
          1126.5,
          1124.0,
          1089.3,
          1099.6,
          1075.5,
          1074.6,
          1068.9,
          1027.8,
          1060.5,
          998.11,
          1048.0,
          1094.3,
          1005.6,
          1031.3,
          1045.6,
          1034.3,
          1011.4,
          1042.9,
          996.54,
          1008.2,
          995.6,
          974.02,
          974.4,
          1010.6,
          996.4,
          972.59,
          1011.3,
          950.58,
          966.71,
          1039.3,
          994.95,
          937.41,
          937.12,
          926.69,
          1001.2,
          998.67,
          947.67,
          918.19,
          898.12,
          927.4,
          964.38,
          927.12,
          924.57,
          950.59,
          996.5,
          938.21,
          927.65,
          951.0,
          915.22,
          968.52,
          928.99,
          921.7,
          855.31,
          927.34,
          929.53,
          922.65,
          880.23,
          943.13,
          968.96,
          894.77,
          887.7,
          872.55,
          866.36,
          894.68,
          959.37,
          886.92,
          849.5,
          971.62,
          926.31,
          848.9,
          860.14,
          863.78,
          831.64,
          885.87,
          843.22,
          890.93,
          877.47,
          895.75,
          896.62,
          891.17,
          834.41,
          858.58,
          845.72,
          891.45,
          877.63,
          819.77,
          873.61,
          849.86,
          830.65,
          829.19,
          819.43,
          802.54,
          882.42,
          915.5,
          890.44,
          839.29,
          769.6,
          817.85,
          847.75,
          808.52,
          831.36,
          863.08,
          880.99,
          805.74,
          810.29,
          793.54,
          848.85,
          842.42,
          799.38,
          777.51,
          738.51,
          808.47,
          809.02,
          790.44,
          815.23,
          743.86,
          830.58,
          876.75,
          811.41,
          834.32,
          831.14,
          769.62,
          783.62,
          764.54,
          723.39,
          712.32,
          772.53,
          811.96,
          783.03,
          754.23,
          713.82,
          702.37,
          768.48,
          708.28,
          756.37,
          712.73,
          753.14,
          716.36,
          805.14,
          765.69,
          718.66,
          720.07,
          733.07,
          764.05,
          660.06,
          676.85,
          729.89,
          780.12,
          743.77,
          697.41,
          737.83,
          676.4,
          763.16,
          705.38,
          656.48,
          723.71,
          701.38,
          774.82,
          742.46,
          669.05,
          712.62,
          757.35,
          656.83,
          639.51,
          673.91,
          744.1,
          721.18,
          708.54,
          675.87,
          692.54,
          711.26,
          688.12,
          680.15,
          651.33,
          713.15,
          705.43,
          679.63,
          672.99,
          694.51,
          637.03,
          664.95,
          658.49,
          679.45,
          634.57,
          672.29,
          681.9,
          673.4,
          642.69,
          648.81,
          652.81,
          650.61,
          590.9,
          681.99,
          714.82,
          605.49,
          642.95,
          632.64,
          646.64,
          600.13,
          646.84,
          629.86,
          629.86,
          650.2,
          525.12,
          617.76,
          661.66,
          671.56,
          584.63,
          671.37,
          610.59,
          666.12,
          616.72,
          624.63,
          628.39,
          613.03,
          679.5,
          622.83,
          611.03,
          647.03,
          667.01,
          611.28,
          628.21,
          561.83,
          606.27,
          647.75,
          588.26,
          595.95,
          627.62,
          598.14,
          630.32,
          579.45,
          588.88,
          627.73,
          601.45,
          612.44,
          633.03,
          598.82,
          625.42,
          595.85,
          611.17,
          600.85,
          592.9,
          566.24,
          647.99,
          525.35,
          627.54,
          577.33,
          575.15,
          562.68,
          610.03,
          588.12,
          576.3,
          574.92,
          612.49,
          614.96,
          651.03,
          585.12,
          598.66,
          621.29,
          594.34,
          607.89,
          598.41,
          592.23,
          595.24,
          595.3,
          585.58,
          643.29,
          642.6,
          649.91,
          652.62,
          642.68,
          591.8,
          627.61,
          695.32,
          602.81,
          654.01,
          679.83,
          676.87,
          714.83,
          639.14,
          636.86,
          696.53,
          679.31,
          706.16,
          706.06,
          643.04,
          665.71,
          708.21,
          605.99,
          713.91,
          666.19,
          743.04,
          704.99,
          744.6,
          713.64,
          766.0,
          692.17,
          690.6,
          828.26,
          733.68,
          762.06,
          735.65,
          746.5,
          814.48,
          722.74,
          796.49,
          773.43,
          791.28,
          767.5,
          746.08,
          800.08,
          740.4,
          821.37,
          814.52,
          760.67,
          857.59,
          787.54,
          855.13,
          869.8,
          799.33,
          819.78,
          888.57,
          894.78,
          922.86,
          932.37,
          859.69,
          902.89,
          1033.6,
          907.6,
          1011.9,
          980.31,
          951.63,
          978.57,
          1075.9,
          968.31,
          1051.2,
          1051.7,
          1114.6,
          1067.7,
          1104.3,
          1178.2,
          1080.1,
          1137.3,
          1250.3,
          1096.9,
          1214.4,
          1288.8,
          1261.2,
          1195.2,
          1286.8,
          1377.4,
          1270.4,
          1286.0,
          1351.5,
          1295.1,
          1404.4,
          1537.7,
          1406.3,
          1459.4,
          1438.2,
          1420.9,
          1395.5,
          1491.4,
          1553.8,
          1487.1,
          1545.6,
          1563.0,
          1569.2,
          1640.9,
          1555.3,
          1662.6,
          1606.3,
          1632.7,
          1642.6,
          1758.1,
          1726.1,
          1582.7,
          1678.3,
          1664.8,
          1705.6,
          1724.6,
          1639.7,
          1558.5,
          1550.0,
          1469.8,
          1400.0,
          1377.5,
          1346.3,
          1406.6,
          1337.8,
          1351.8,
          1274.4,
          1158.5,
          1065.3,
          1093.5,
          1016.0,
          1042.0,
          939.49,
          906.73,
          857.74,
          880.7,
          797.11,
          744.08,
          777.66,
          646.18,
          677.19,
          596.41,
          587.26,
          615.55,
          512.32,
          499.52,
          499.84,
          475.85,
          389.74,
          401.84,
          346.2,
          344.25,
          365.96,
          347.68,
          306.57,
          246.57,
          307.17,
          280.09,
          239.65,
          225.92,
          229.9,
          197.59,
          185.43,
          186.67,
          181.76,
          164.63,
          170.38,
          157.06,
          147.18,
          151.76,
          141.59,
          141.27,
          131.29,
          115.95,
          121.54,
          86.06,
          113.28,
          99.699,
          118.66,
          97.913,
          82.596,
          72.054,
          79.559,
          75.884,
          69.123,
          78.686,
          79.77,
          76.632,
          80.362,
          70.793,
          67.413,
          52.913,
          70.086,
          69.502,
          54.31,
          45.463,
          42.402,
          49.176,
          42.549,
          45.899,
          51.297,
          50.731,
          52.88,
          36.614,
          44.424,
          44.082,
          41.534,
          47.657,
          37.334,
          29.702,
          42.139,
          39.35,
          36.369,
          38.413,
          35.475,
          40.191,
          32.502,
          41.193,
          43.986,
          29.153,
          32.038,
          33.4,
          32.32,
          27.638,
          39.675,
          32.351,
          28.565,
          28.905,
          38.764,
          32.775,
          28.053,
          24.065,
          32.431,
          39.349,
          27.715,
          24.119,
          35.736,
          34.541,
          36.172,
          36.395,
          30.462,
          27.539,
          26.473,
          30.614,
          29.3,
          34.48,
          29.253,
          31.977,
          27.126,
          29.087,
          38.027,
          29.347,
          25.547,
          29.006,
          32.927,
          31.475,
          28.057,
          24.948,
          23.959,
          29.925,
          24.075,
          27.036,
          25.776,
          36.045,
          22.749,
          23.243,
          26.68,
          26.468,
          20.714,
          27.777,
          24.49,
          14.61,
          23.685,
          35.622,
          24.726,
          35.108,
          33.096,
          36.485,
          24.972,
          23.049,
          33.712,
          30.932,
          22.481,
          21.457,
          22.063,
          24.199,
          17.26,
          31.369,
          32.276,
          28.194,
          21.31,
          35.68,
          29.044,
          26.91,
          32.338,
          21.124,
          18.153,
          20.465,
          46.458,
          25.553,
          23.766,
          24.19,
          24.65,
          36.443,
          42.388,
          25.899,
          35.425,
          37.952,
          15.966,
          23.865,
          34.784,
          25.785,
          35.955,
          24.672,
          26.266,
          36.144,
          16.493,
          35.203,
          26.564,
          30.828,
          25.683,
          27.306,
          24.704,
          23.303,
          20.78,
          32.019,
          24.548,
          24.936,
          24.933,
          29.461,
          30.238,
          24.963,
          30.032,
          24.851,
          18.073,
          23.006,
          19.952,
          31.505,
          10.557,
          37.357,
          14.945,
          20.308,
          26.957,
          23.954,
          25.146,
          24.153,
          21.122,
          17.663,
          33.548,
          21.158,
          24.402,
          18.429,
          18.468,
          19.816,
          27.249,
          16.448,
          20.981,
          23.405,
          34.097,
          18.665,
          20.524,
          35.351,
          14.229,
          12.525,
          21.675,
          24.084,
          18.957,
          27.795,
          22.958,
          12.367,
          13.849,
          21.753,
          33.178,
          19.847,
          12.779,
          21.256,
          30.69,
          14.51,
          13.266,
          20.259,
          28.031,
          17.376,
          13.161,
          17.474,
          23.595,
          22.73,
          29.877,
          22.375,
          23.464,
          28.427,
          30.216,
          32.28,
          23.608,
          18.413,
          15.643,
          29.066,
          22.568,
          23.08,
          22.539,
          28.524,
          23.384,
          22.237,
          26.97,
          25.057,
          26.912,
          14.185,
          27.344,
          16.529,
          19.364,
          27.053,
          18.574,
          21.03,
          29.61,
          22.281,
          29.761,
          35.758,
          31.622,
          24.952,
          31.523,
          28.979,
          35.962,
          33.827,
          32.022,
          37.973,
          30.318,
          29.663,
          34.804,
          36.528,
          24.718,
          36.13,
          28.095,
          32.504,
          16.775,
          34.367,
          22.436,
          49.886,
          36.845,
          38.816,
          21.841,
          37.544,
          27.329,
          29.621,
          32.725,
          40.063,
          32.253,
          28.44,
          37.065,
          31.843,
          41.418,
          41.618,
          34.021,
          34.92,
          35.388,
          35.649,
          31.989,
          36.846,
          42.095,
          43.44,
          33.964,
          32.302,
          38.044,
          44.909,
          43.286,
          36.391,
          51.224,
          38.58,
          33.807,
          41.07,
          40.519,
          47.161,
          32.823,
          46.146,
          56.423,
          56.932,
          42.011,
          54.46,
          37.35,
          52.32,
          62.259,
          57.917,
          37.548,
          79.405,
          63.389,
          54.044,
          46.687,
          64.524,
          53.523,
          58.478,
          78.354,
          75.625,
          54.922,
          77.209,
          68.97,
          65.644,
          78.392,
          66.514,
          78.075,
          93.779,
          101.28,
          113.07
        ],
        [
          397.74,
          350.92,
          419.51,
          343.05,
          341.39,
          393.34,
          362.59,
          455.74,
          355.65,
          361.64,
          419.6,
          368.45,
          398.74,
          387.59,
          366.61,
          394.99,
          374.31,
          376.16,
          340.38,
          347.47,
          334.15,
          350.09,
          356.96,
          362.65,
          360.58,
          324.51,
          296.21,
          320.88,
          327.02,
          362.63,
          394.53,
          379.47,
          374.76,
          358.14,
          318.62,
          359.77,
          371.67,
          335.18,
          317.79,
          334.27,
          350.23,
          334.34,
          330.76,
          309.75,
          308.86,
          349.39,
          302.94,
          328.43,
          303.68,
          303.39,
          292.33,
          314.51,
          285.4,
          321.79,
          285.17,
          287.21,
          272.61,
          306.33,
          325.21,
          259.23,
          304.01,
          276.48,
          273.16,
          306.6,
          258.41,
          271.65,
          302.2,
          312.43,
          276.29,
          307.4,
          293.24,
          260.99,
          271.85,
          279.9,
          286.06,
          268.9,
          287.3,
          274.48,
          279.44,
          283.66,
          264.47,
          304.09,
          298.47,
          251.41,
          247.25,
          249.78,
          256.65,
          267.26,
          233.28,
          268.23,
          267.53,
          258.42,
          258.53,
          250.01,
          227.92,
          235.58,
          238.46,
          272.83,
          238.16,
          261.64,
          226.24,
          254.73,
          237.93,
          247.09,
          243.0,
          244.67,
          218.57,
          221.09,
          237.29,
          250.07,
          214.88,
          230.83,
          237.68,
          208.87,
          244.29,
          220.48,
          227.19,
          226.09,
          217.81,
          199.7,
          245.35,
          219.72,
          212.5,
          215.73,
          232.78,
          211.53,
          198.62,
          217.27,
          211.45,
          234.38,
          208.05,
          208.49,
          180.51,
          193.85,
          200.67,
          194.86,
          197.62,
          212.28,
          193.59,
          205.4,
          196.3,
          192.68,
          190.64,
          187.94,
          190.44,
          194.31,
          179.74,
          184.14,
          187.38,
          174.72,
          178.94,
          184.93,
          178.56,
          195.62,
          200.52,
          179.97,
          169.95,
          167.53,
          173.15,
          176.87,
          166.36,
          165.14,
          175.82,
          160.15,
          166.2,
          163.5,
          178.54,
          171.56,
          164.81,
          155.69,
          177.29,
          168.0,
          160.82,
          177.63,
          163.28,
          162.35,
          168.05,
          165.18,
          164.17,
          168.43,
          160.53,
          158.27,
          162.09,
          159.59,
          150.05,
          155.5,
          155.85,
          149.98,
          150.59,
          136.28,
          146.27,
          146.38,
          139.45,
          137.49,
          140.05,
          138.57,
          143.16,
          147.45,
          140.81,
          137.58,
          140.49,
          125.6,
          138.21,
          131.96,
          127.88,
          140.34,
          129.94,
          128.9,
          131.95,
          129.56,
          129.57,
          129.15,
          125.11,
          123.8,
          113.7,
          122.13,
          118.39,
          119.39,
          120.42,
          113.16,
          124.05,
          120.74,
          112.52,
          111.87,
          108.69,
          111.1,
          110.1,
          108.73,
          107.21,
          107.01,
          113.57,
          110.21,
          106.59,
          105.97,
          115.92,
          104.81,
          107.9,
          112.03,
          103.86,
          106.65,
          104.54,
          103.76,
          106.73,
          104.52,
          104.92,
          98.771,
          103.58,
          99.214,
          99.246,
          101.74,
          103.49,
          103.66,
          95.368,
          95.097,
          95.318,
          93.98,
          100.94,
          91.822,
          94.294,
          92.889,
          92.912,
          95.847,
          93.051,
          89.714,
          90.965,
          87.721,
          88.258,
          86.816,
          84.994,
          85.033,
          84.8,
          89.433,
          83.517,
          84.335,
          83.38,
          82.503,
          84.305,
          87.263,
          82.414,
          82.92,
          78.095,
          82.595,
          79.915,
          75.394,
          81.316,
          81.324,
          76.794,
          83.84,
          77.272,
          74.429,
          74.557,
          74.155,
          77.806,
          76.696,
          74.333,
          71.476,
          73.786,
          74.532,
          72.239,
          69.582,
          69.491,
          69.472,
          73.756,
          69.103,
          69.294,
          68.72,
          70.252,
          71.552,
          68.587,
          66.856,
          68.861,
          64.81,
          64.518,
          64.425,
          64.83,
          64.995,
          65.868,
          66.391,
          62.606,
          64.53,
          65.169,
          58.306,
          62.351,
          61.686,
          60.563,
          58.495,
          59.84,
          57.983,
          58.884,
          59.863,
          58.736,
          57.113,
          53.831,
          56.131,
          58.254,
          55.169,
          55.457,
          56.231,
          53.163,
          54.068,
          54.058,
          49.693,
          54.001,
          49.894,
          52.902,
          49.119,
          50.561,
          49.189,
          48.66,
          48.193,
          48.774,
          48.33,
          47.146,
          47.659,
          46.509,
          49.041,
          47.527,
          46.287,
          47.096,
          44.291,
          44.928,
          46.263,
          46.421,
          45.369,
          44.769,
          43.843,
          43.505,
          42.39,
          42.454,
          42.474,
          42.236,
          41.956,
          43.066,
          41.898,
          39.552,
          40.532,
          39.094,
          40.247,
          39.685,
          39.075,
          39.267,
          39.097,
          36.988,
          37.548,
          38.392,
          37.616,
          38.148,
          36.62,
          36.949,
          35.524,
          35.627,
          35.028,
          35.837,
          35.419,
          35.316,
          33.599,
          32.348,
          32.77,
          32.733,
          33.702,
          32.567,
          31.492,
          33.222,
          31.107,
          31.829,
          31.314,
          31.301,
          31.095,
          31.181,
          30.495,
          30.314,
          30.438,
          29.964,
          29.676,
          30.551,
          29.374,
          29.172,
          28.2,
          28.446,
          28.775,
          28.023,
          27.294,
          27.771,
          26.979,
          27.007,
          26.975,
          27.112,
          26.132,
          26.268,
          26.008,
          25.593,
          25.983,
          25.593,
          25.095,
          25.049,
          25.013,
          25.051,
          24.532,
          25.207,
          24.877,
          24.736,
          24.4,
          25.106,
          25.202,
          24.182,
          24.805,
          24.063,
          23.45,
          23.732,
          23.223,
          23.399,
          23.333,
          22.997,
          23.19,
          22.329,
          22.518,
          22.652,
          21.804,
          21.982,
          22.1,
          21.858,
          21.445,
          21.735,
          21.599,
          20.841,
          21.214,
          20.975,
          20.715,
          20.625,
          20.09,
          20.493,
          19.609,
          20.25,
          20.888,
          19.551,
          19.945,
          19.966,
          19.861,
          19.559,
          20.09,
          19.367,
          19.599,
          19.376,
          29.817,
          29.604,
          30.45,
          30.098,
          29.433,
          30.574,
          29.227,
          29.302,
          31.25,
          29.981,
          28.556,
          29.063,
          28.576,
          30.351,
          30.221,
          29.368,
          28.596,
          27.952,
          28.672,
          29.591,
          28.828,
          28.668,
          29.332,
          30.357,
          29.265,
          28.929,
          29.531,
          28.857,
          29.868,
          29.247,
          29.105,
          27.787,
          29.445,
          29.322,
          29.301,
          28.544,
          29.656,
          30.576,
          28.944,
          28.938,
          28.522,
          28.256,
          28.866,
          30.83,
          29.207,
          28.236,
          30.834,
          29.975,
          28.359,
          28.47,
          28.515,
          27.729,
          29.2,
          27.95,
          29.406,
          29.041,
          29.443,
          29.505,
          29.239,
          28.037,
          28.648,
          28.467,
          29.65,
          29.275,
          27.828,
          29.411,
          28.571,
          28.241,
          28.167,
          28.339,
          27.879,
          29.61,
          30.037,
          30.25,
          28.942,
          27.543,
          28.546,
          29.153,
          27.725,
          28.91,
          30.024,
          30.363,
          28.413,
          28.437,
          27.926,
          29.49,
          29.495,
          28.569,
          27.896,
          27.425,
          29.307,
          28.909,
          28.656,
          29.259,
          27.353,
          29.938,
          31.106,
          29.681,
          30.292,
          30.187,
          28.67,
          29.442,
          28.755,
          27.988,
          27.477,
          29.658,
          30.033,
          30.232,
          28.921,
          28.135,
          28.315,
          29.45,
          28.47,
          29.715,
          28.451,
          29.405,
          28.645,
          31.716,
          30.327,
          28.717,
          29.203,
          29.745,
          30.758,
          28.066,
          28.292,
          29.95,
          31.328,
          30.361,
          29.272,
          30.552,
          28.699,
          31.701,
          30.072,
          28.793,
          30.969,
          30.453,
          32.307,
          31.717,
          29.327,
          31.031,
          32.181,
          29.595,
          28.998,
          29.96,
          32.556,
          31.965,
          31.587,
          30.29,
          30.848,
          31.761,
          30.986,
          30.819,
          30.539,
          32.241,
          32.259,
          31.155,
          31.24,
          32.397,
          29.801,
          31.319,
          30.967,
          31.559,
          30.782,
          31.758,
          32.635,
          31.632,
          31.366,
          31.311,
          31.786,
          31.36,
          29.948,
          32.82,
          34.262,
          29.965,
          31.847,
          31.213,
          31.849,
          30.162,
          32.126,
          31.34,
          30.799,
          31.896,
          27.157,
          31.199,
          32.926,
          32.951,
          29.974,
          32.865,
          30.05,
          32.819,
          30.668,
          31.603,
          31.129,
          30.765,
          32.94,
          31.422,
          30.938,
          32.7,
          32.742,
          30.605,
          31.67,
          29.134,
          31.005,
          31.742,
          30.114,
          30.13,
          31.245,
          29.912,
          31.426,
          29.478,
          29.506,
          31.174,
          30.302,
          30.764,
          31.243,
          29.898,
          30.729,
          28.856,
          30.348,
          29.438,
          29.132,
          28.373,
          30.779,
          26.227,
          30.416,
          28.667,
          28.29,
          27.6,
          28.936,
          27.986,
          28.003,
          27.222,
          28.526,
          28.829,
          30.119,
          27.584,
          28.2,
          28.511,
          28.102,
          28.32,
          27.949,
          27.745,
          27.198,
          27.075,
          26.606,
          28.931,
          28.179,
          28.423,
          28.569,
          27.807,
          26.05,
          27.451,
          29.645,
          25.993,
          27.267,
          28.663,
          40.671,
          41.545,
          37.811,
          38.528,
          40.038,
          39.989,
          40.313,
          40.595,
          38.188,
          38.391,
          41.485,
          35.471,
          39.388,
          38.044,
          41.278,
          39.216,
          41.163,
          40.124,
          42.388,
          38.658,
          38.457,
          44.189,
          39.693,
          40.921,
          39.818,
          40.557,
          43.249,
          38.833,
          42.437,
          41.27,
          41.311,
          41.195,
          39.145,
          40.846,
          38.737,
          42.015,
          42.075,
          39.441,
          43.178,
          40.803,
          42.95,
          43.061,
          41.876,
          40.98,
          43.527,
          43.455,
          45.275,
          44.297,
          42.137,
          43.246,
          49.142,
          42.858,
          47.287,
          45.684,
          44.544,
          45.383,
          48.488,
          44.646,
          49.226,
          47.05,
          49.82,
          47.751,
          49.357,
          52.776,
          47.487,
          50.533,
          55.416,
          47.683,
          52.949,
          54.843,
          53.646,
          50.602,
          55.849,
          58.811,
          53.439,
          53.872,
          56.511,
          53.603,
          57.73,
          61.958,
          57.047,
          58.972,
          57.89,
          56.962,
          56.194,
          59.796,
          61.628,
          58.874,
          60.713,
          61.155,
          61.65,
          63.812,
          60.336,
          63.69,
          61.537,
          62.054,
          64.978,
          67.475,
          66.428,
          61.229,
          64.478,
          64.598,
          67.049,
          66.702,
          64.072,
          60.792,
          60.637,
          58.164,
          56.121,
          55.262,
          53.93,
          56.336,
          55.193,
          54.509,
          52.254,
          48.937,
          44.945,
          47.154,
          44.215,
          45.599,
          41.702,
          40.508,
          38.162,
          40.527,
          36.735,
          35.19,
          36.652,
          32.595,
          33.663,
          29.792,
          30.348,
          30.947,
          27.492,
          26.474,
          27.535,
          25.91,
          22.468,
          22.787,
          21.032,
          21.046,
          21.693,
          21.27,
          19.456,
          16.613,
          19.262,
          18.284,
          16.417,
          15.836,
          15.915,
          14.679,
          13.75,
          13.965,
          13.881,
          12.891,
          13.492,
          12.534,
          12.012,
          12.365,
          11.66,
          11.799,
          11.147,
          10.512,
          10.788,
          8.7152,
          10.119,
          9.5103,
          10.43,
          9.3873,
          8.5135,
          7.9568,
          8.3797,
          8.231,
          7.789,
          8.4102,
          8.6102,
          8.1329,
          8.5927,
          7.8935,
          7.6446,
          6.8189,
          7.7088,
          7.5556,
          6.7714,
          6.2101,
          5.961,
          6.3114,
          5.8955,
          6.094,
          6.2588,
          6.4734,
          6.3809,
          5.4518,
          5.9291,
          5.9245,
          5.6012,
          6.0071,
          5.3618,
          4.7536,
          5.6156,
          5.4702,
          5.2719,
          5.2873,
          4.9606,
          5.4118,
          4.9417,
          5.3897,
          5.7073,
          4.4693,
          4.7429,
          4.8105,
          4.6873,
          4.367,
          5.1507,
          4.7127,
          4.4003,
          4.2629,
          5.2509,
          4.5903,
          4.2329,
          3.8688,
          4.4697,
          4.9698,
          4.1148,
          3.9558,
          4.717,
          4.5612,
          4.8107,
          4.7005,
          4.454,
          4.0866,
          4.0013,
          4.3473,
          4.222,
          4.5135,
          4.1339,
          4.3932,
          4.0313,
          4.0693,
          4.5944,
          3.9948,
          3.7756,
          4.0508,
          4.1956,
          4.0639,
          3.807,
          3.6079,
          3.6081,
          4.0658,
          3.527,
          3.7733,
          3.6108,
          4.3774,
          3.4153,
          3.5021,
          3.5914,
          3.6209,
          6.6038,
          7.538,
          6.8725,
          5.5074,
          6.9477,
          8.3972,
          6.9821,
          8.2651,
          8.19,
          8.1988,
          6.8199,
          7.0462,
          7.9481,
          7.9074,
          6.3629,
          6.2826,
          6.4335,
          6.7932,
          5.7733,
          7.5744,
          7.9993,
          7.1585,
          6.2136,
          8.5987,
          7.4134,
          7.0954,
          7.4277,
          6.169,
          5.7661,
          6.2678,
          9.2976,
          6.5291,
          6.6908,
          6.3623,
          6.7103,
          8.3612,
          8.7602,
          6.8239,
          7.7805,
          8.3472,
          5.1261,
          6.5377,
          8.0166,
          6.7989,
          7.9051,
          6.7369,
          6.706,
          7.7603,
          5.2757,
          7.9205,
          6.4268,
          7.4571,
          6.7708,
          6.817,
          6.5096,
          6.3479,
          6.1029,
          7.7354,
          6.0566,
          6.5341,
          6.1883,
          7.1065,
          7.3055,
          6.5737,
          7.0579,
          6.5451,
          5.5327,
          5.8789,
          5.8588,
          7.2589,
          4.322,
          8.4022,
          4.774,
          5.7524,
          6.8978,
          6.2906,
          6.2357,
          6.3737,
          5.9221,
          5.6245,
          7.3964,
          5.9876,
          6.4356,
          5.1997,
          5.6382,
          5.5991,
          6.6059,
          4.8455,
          5.9641,
          5.9833,
          7.3457,
          5.5143,
          5.8041,
          7.4708,
          4.8198,
          4.475,
          5.9295,
          6.371,
          5.3724,
          6.5577,
          6.0633,
          4.3875,
          4.6625,
          5.7312,
          7.3151,
          5.4342,
          4.58,
          5.4338,
          6.8945,
          4.6624,
          4.4845,
          5.5249,
          6.6042,
          5.3475,
          4.4661,
          4.9375,
          6.0477,
          5.6641,
          6.7486,
          5.729,
          5.8294,
          6.8928,
          6.5022,
          6.968,
          5.8884,
          5.4287,
          4.7931,
          6.5406,
          5.6339,
          5.6009,
          5.4679,
          6.1686,
          5.6974,
          5.5472,
          5.9425,
          5.7682,
          6.5292,
          4.3494,
          5.8846,
          4.8738,
          5.3035,
          6.2174,
          4.7521,
          5.4045,
          6.2582,
          5.5468,
          6.563,
          7.1575,
          6.8382,
          5.7469,
          6.2854,
          6.1258,
          6.8478,
          7.0317,
          6.6595,
          7.1453,
          5.963,
          6.2871,
          6.6448,
          6.6622,
          5.4585,
          7.1484,
          5.8401,
          6.3826,
          4.447,
          6.7978,
          5.1816,
          8.5754,
          6.8286,
          7.2154,
          5.3222,
          6.947,
          5.9051,
          5.93,
          6.3331,
          7.3156,
          6.2447,
          5.9121,
          7.1001,
          6.0795,
          7.2778,
          7.2126,
          6.4006,
          6.375,
          6.4611,
          6.4006,
          6.202,
          6.7373,
          7.413,
          7.2747,
          6.2999,
          6.0795,
          6.8794,
          7.354,
          6.7621,
          6.5651,
          8.169,
          6.6103,
          6.2705,
          7.0517,
          6.4687,
          7.3243,
          5.9044,
          7.6781,
          7.8461,
          8.1208,
          6.9559,
          8.1934,
          6.3024,
          7.9345,
          8.7936,
          8.1438,
          6.1248,
          10.44,
          9.129,
          8.2246,
          6.9131,
          8.8643,
          7.6388,
          7.9794,
          9.9006,
          9.1241,
          7.726,
          9.2795,
          9.0549,
          8.3519,
          9.6164,
          8.3039,
          9.4604,
          10.298,
          11.175,
          12.472
        ]
      ]
    }
  },
  "22193-003": {
    "reaction": {
      "0": {
        "x4_code": "(94-PU-241(N,F),,INT)",
        "0": {
          "code": [
            "94-PU-241",
            [
              "N,F"
            ],
            ",,INT"
          ],
          "type": null,
          "target": "94-PU-241",
          "process": "N,F",
          "sf49": ",,INT",
          "sf4": null,
          "sf5": null,
          "sf6": "INT",
          "sf7": null,
          "sf8": null,
          "sf9": null
        },
        "type": null,
        "free_text": ""
      }
    },
    "extra_information": {
      "err-analys": {
        "0": [
          {
            "x4_code": "(DATA-ERR)",
            "free_txt": [
              " Errors excluding normalization uncertainty"
            ]
          }
        ]
      },
      "flag": {
        "0": [
          {
            "x4_code": "(1.)",
            "free_txt": [
              " Value obtained with a poor energy resolution"
            ]
          }
        ]
      },
      "monitor": {
        "0": [
          {
            "x4_code": "(94-PU-241(N,F),,INT)",
            "free_txt": [
              "  - fission integrals renormalized",
              " to 264.58 b*eV"
            ]
          }
        ]
      },
      "status": {
        "0": [
          {
            "x4_code": "(TABLE)",
            "free_txt": [
              " Tbl.1 from 91JUELIC,,35,1991"
            ]
          },
          {
            "x4_code": "(DEP,22193002)",
            "free_txt": [
              " energy averaged from cr.sect. data.",
              " mean value of measurements"
            ]
          }
        ]
      }
    },
    "common": {
      "heads": [
        "EN-NRM-MIN",
        "EN-NRM-MAX",
        "MONIT"
      ],
      "units": [
        "EV",
        "EV",
        "B*EV"
      ],
      "data": [
        [
          0.1
        ],
        [
          0.5
        ],
        [
          264.58
        ]
      ]
    },
    "data": {
      "heads": [
        "EN-MIN",
        "EN-MAX",
        "DATA",
        "DATA-ERR",
        "FLAG"
      ],
      "units": [
        "EV",
        "EV",
        "B*EV",
        "B*EV",
        "NO-DIM"
      ],
      "data": [
        [
          0.01,
          0.02,
          0.02,
          0.03,
          0.1,
          0.5,
          1.0,
          3.0,
          8.0,
          12.0
        ],
        [
          0.02,
          0.03,
          0.45,
          0.1,
          0.5,
          1.0,
          3.0,
          8.0,
          12.0,
          20.0
        ],
        [
          13.42,
          10.24,
          319.9,
          48.7,
          264.58,
          17.6,
          54.4,
          1183.0,
          540.0,
          1284.0
        ],
        [
          0.04,
          0.04,
          1.0,
          0.2,
          1.0,
          0.4,
          0.9,
          14.0,
          11.0,
          20.0
        ],
        [
          null,
          null,
          null,
          null,
          null,
          null,
          null,
          null,
          null,
          1.0
        ]
      ]
    }
  }
}