{
  "bib": {
    "title": "Total Cross Sections And Reaction Rates For 19F(Alpha,N)22Na And 22Ne(P,N)22Na And Their Inverses",
    "authors": [
      {
        "name": "P.R.Wrean"
      },
      {
        "name": "R.W.Kavanagh"
      }
    ],
    "institutes": [
      {
        "x4_code": "(1USACAL)",
        "free_txt": []
      }
    ],
    "references": {
      "0": [
        {
          "x4_code": "(J,PR/C,62,055805,200011)",
          "free_txt": [],
          "publication_year": "2000"
        }
      ]
    },
    "facility": {
      "0": [
        {
          "x4_code": "(ACCEL,1USACAL)",
          "free_txt": [
            " 3-MV Pelletron tandem accelerator."
          ],
          "facility_type": "(ACCEL)",
          "insitute": "(1USACAL)"
        }
      ]
    },
    "history": [
      {
        "x4_code": "(20041008C)",
        "free_txt": [
          " VM"
        ]
      }
    ]
  },
  "C1049-001": {
    "extra_information": {
      "detector": {
        "0": [
          {
            "x4_code": "(PROPC)",
            "free_txt": [
              " 3He-filled proportional counters embedded in",
              " a polyethylene moderator, and surrounded by cadmium",
              " shielding, which is in turn surrounded by",
              " polyethylene and paraffin."
            ]
          }
        ]
      },
      "facility": {
        "0": [
          {
            "x4_code": "(ACCEL,1USACAL)",
            "free_txt": [
              " 3-MV Pelletron tandem accelerator."
            ]
          }
        ]
      },
      "method": {
        "0": [
          {
            "x4_code": "(BCINT)",
            "free_txt": []
          }
        ]
      },
      "status": {
        "0": [
          {
            "x4_code": null,
            "free_txt": [
              "Data received by email from P.Wrean, 2004/9/24.",
              "Approval received from P. Wrean, 2005/1/9."
            ]
          }
        ]
      }
    }
  },
  "C1049-002": {
    "reaction": {
      "0": {
        "x4_code": "(9-F-19(A,N)11-NA-22,,SIG)",
        "0": {
          "code": [
            "9-F-19",
            [
              "A,N"
            ],
            "11-NA-22,,SIG"
          ],
          "type": null,
          "target": "9-F-19",
          "process": "A,N",
          "sf49": "11-NA-22,,SIG",
          "sf4": "11-NA-22",
          "sf5": null,
          "sf6": "SIG",
          "sf7": null,
          "sf8": null,
          "sf9": null
        },
        "type": null,
        "free_text": ""
      }
    },
    "extra_information": {
      "correction": {
        "0": [
          {
            "x4_code": null,
            "free_txt": [
              "Corrected for:",
              ". target impurities of 11B, 13C, and 18O.",
              ". deadtime,",
              ". background,",
              ". leakage current."
            ]
          }
        ]
      },
      "err-analys": {
        "0": [
          {
            "x4_code": "(ERR-S)",
            "free_txt": [
              " Statistical uncertainty given.",
              "Additional systematic uncertainty of <0.01 mb below",
              " 2.5 MeV.",
              "Overall normalization uncertainty is 8%."
            ]
          }
        ]
      },
      "inc-source": {
        "0": [
          {
            "x4_code": null,
            "free_txt": [
              "4He+ beam."
            ]
          }
        ]
      },
      "sample": {
        "0": [
          {
            "x4_code": null,
            "free_txt": [
              "201-microg crystal of optical-grade CaF2, evaporated",
              " onto Cu backing. Initial target thickness was 4.9E+16",
              " 19F atoms/cm2. Final thickness was 3.9E+16 atoms/cm2,",
              " due to deterioration under bombardment."
            ]
          }
        ]
      }
    },
    "common": null,
    "data": {
      "heads": [
        "EN",
        "DATA",
        "ERR-S"
      ],
      "units": [
        "MEV",
        "MB",
        "MB"
      ],
      "data": [
        [
          2.2841,
          2.2872,
          2.2904,
          2.2935,
          2.2967,
          2.2998,
          2.3103,
          2.3209,
          2.3314,
          2.342,
          2.3489,
          2.3521,
          2.3553,
          2.3585,
          2.3601,
          2.3617,
          2.3633,
          2.3641,
          2.3649,
          2.3657,
          2.3665,
          2.3673,
          2.3681,
          2.3689,
          2.3697,
          2.3705,
          2.3713,
          2.3729,
          2.3761,
          2.3793,
          2.3825,
          2.3857,
          2.3889,
          2.3921,
          2.3929,
          2.3937,
          2.3945,
          2.3953,
          2.3961,
          2.3969,
          2.3978,
          2.3986,
          2.3994,
          2.4002,
          2.401,
          2.4018,
          2.4034,
          2.405,
          2.4066,
          2.4098,
          2.4098,
          2.4131,
          2.4179,
          2.4179,
          2.4227,
          2.4276,
          2.4325,
          2.4357,
          2.4389,
          2.4398,
          2.4406,
          2.4414,
          2.4422,
          2.4433,
          2.4444,
          2.4452,
          2.446,
          2.4468,
          2.4476,
          2.4487,
          2.4498,
          2.4509,
          2.4525,
          2.4541,
          2.4557,
          2.4574,
          2.459,
          2.4606,
          2.4614,
          2.4623,
          2.4631,
          2.4639,
          2.4647,
          2.4655,
          2.4663,
          2.4672,
          2.468,
          2.4688,
          2.4696,
          2.4704,
          2.4712,
          2.4721,
          2.4729,
          2.4737,
          2.4745,
          2.4753,
          2.4761,
          2.477,
          2.478,
          2.4791,
          2.4791,
          2.4802,
          2.4813,
          2.4824,
          2.4824,
          2.483,
          2.4846,
          2.4857,
          2.4879,
          2.489,
          2.4922,
          2.4939,
          2.4955,
          2.4972,
          2.4988,
          2.5021,
          2.5054,
          2.5087,
          2.5103,
          2.512,
          2.5136,
          2.5153,
          2.5161,
          2.5169,
          2.5177,
          2.5186,
          2.5194,
          2.5202,
          2.521,
          2.5219,
          2.5235,
          2.5246,
          2.5262,
          2.5279,
          2.5296,
          2.5329,
          2.5329,
          2.5329,
          2.5362,
          2.5395,
          2.5428,
          2.5461,
          2.5494,
          2.5527,
          2.5561,
          2.5594,
          2.5627,
          2.566,
          2.5694,
          2.5727,
          2.576,
          2.5794,
          2.5827,
          2.586,
          2.5894,
          2.5927,
          2.5961,
          2.5994,
          2.6028,
          2.6061,
          2.6095,
          2.6129,
          2.6162,
          2.6196,
          2.6229,
          2.6263,
          2.6297,
          2.6313,
          2.633,
          2.6347,
          2.6356,
          2.6364,
          2.6381,
          2.6398,
          2.6415,
          2.6432,
          2.6449,
          2.6465,
          2.6482,
          2.6491,
          2.6499,
          2.6508,
          2.6516,
          2.6525,
          2.6533,
          2.6541,
          2.6541,
          2.655,
          2.655,
          2.6567,
          2.6567,
          2.6584,
          2.6601,
          2.6635,
          2.6669,
          2.6703,
          2.6736,
          2.677,
          2.6804,
          2.6804,
          2.6839,
          2.6873,
          2.6907,
          2.6941,
          2.6975,
          2.7009,
          2.7043,
          2.7077,
          2.7094,
          2.7103,
          2.7112,
          2.712,
          2.7129,
          2.7137,
          2.7146,
          2.7154,
          2.7163,
          2.718,
          2.7197,
          2.7214,
          2.7231,
          2.7248,
          2.7266,
          2.7283,
          2.7291,
          2.73,
          2.7309,
          2.7317,
          2.7334,
          2.7352,
          2.7386,
          2.742,
          2.7455,
          2.7489,
          2.7524,
          2.7558,
          2.7558,
          2.7593,
          2.7627,
          2.7662,
          2.7696,
          2.7731,
          2.7748,
          2.7765,
          2.7783,
          2.78,
          2.7817,
          2.7826,
          2.7835,
          2.7835,
          2.7843,
          2.7852,
          2.7869,
          2.7904,
          2.7939,
          2.7974,
          2.8008,
          2.8043,
          2.8078,
          2.8095,
          2.8104,
          2.8113,
          2.8121,
          2.813,
          2.8139,
          2.8148,
          2.8182,
          2.82,
          2.82,
          2.82,
          2.8217,
          2.8217,
          2.8235,
          2.8252,
          2.827,
          2.8287,
          2.8305,
          2.8322,
          2.834,
          2.8357,
          2.8375,
          2.8392,
          2.841,
          2.8427,
          2.8445,
          2.8453,
          2.8462,
          2.8471,
          2.848,
          2.848,
          2.8497,
          2.8515,
          2.8524,
          2.8532,
          2.8541,
          2.855,
          2.8567,
          2.8585,
          2.8594,
          2.8603,
          2.8611,
          2.862,
          2.8638,
          2.8655,
          2.8673,
          2.8673,
          2.8691,
          2.8708,
          2.8726,
          2.8743,
          2.8779,
          2.8796,
          2.8796,
          2.8814,
          2.8823,
          2.8827,
          2.8832,
          2.884,
          2.8849,
          2.8854,
          2.8867,
          2.8885,
          2.8902,
          2.8926,
          2.8949,
          2.8961,
          2.8973,
          2.8985,
          2.8996,
          2.9008,
          2.9032,
          2.9044,
          2.9055,
          2.9067,
          2.9091,
          2.9109,
          2.9114,
          2.9138,
          2.9162,
          2.9197,
          2.9215,
          2.9256,
          2.9316,
          2.9316,
          2.9375,
          2.9434,
          2.9494,
          2.9553,
          2.9613,
          2.9643,
          2.9672,
          2.9672,
          2.9732,
          2.9732,
          2.9792,
          2.9792,
          2.9852,
          2.9912,
          2.9971,
          2.9971,
          3.0032,
          3.0092,
          3.0122,
          3.0137,
          3.0152,
          3.0167,
          3.0182,
          3.0197,
          3.0212,
          3.0227,
          3.0242,
          3.0257,
          3.0272,
          3.0302,
          3.0332,
          3.0347,
          3.0347,
          3.0362,
          3.0393,
          3.0453,
          3.0513,
          3.0574,
          3.0635,
          3.0695,
          3.0756,
          3.0786,
          3.0817,
          3.0877,
          3.0938,
          3.0938,
          3.0999
        ],
        [
          0.0075086,
          0.0034569,
          6.0403e-05,
          0.0081446,
          0.0044838,
          0.0014222,
          0.00098985,
          0.0040905,
          0.00047517,
          0.00070044,
          0.00098614,
          0.0022932,
          0.0066755,
          0.002824,
          0.0071071,
          0.00029094,
          0.0020478,
          0.036363,
          0.079662,
          0.082884,
          0.076527,
          0.045832,
          0.021898,
          0.016548,
          0.016306,
          0.010903,
          0.01111,
          0.013475,
          0.013943,
          0.01328,
          0.017624,
          0.018822,
          0.013253,
          0.022562,
          0.015265,
          0.020389,
          0.051323,
          0.10962,
          0.16652,
          0.1766,
          0.1416,
          0.10009,
          0.068783,
          0.047878,
          0.036417,
          0.028255,
          0.029214,
          0.033961,
          0.027805,
          0.027734,
          0.02945,
          0.033657,
          0.038482,
          0.040185,
          0.030394,
          0.031434,
          0.032655,
          0.031464,
          0.031897,
          0.044564,
          0.051035,
          0.060815,
          0.10131,
          0.1746,
          0.19929,
          0.19533,
          0.14612,
          0.11095,
          0.087051,
          0.051626,
          0.048437,
          0.042704,
          0.040959,
          0.042376,
          0.048628,
          0.05067,
          0.049346,
          0.038265,
          0.033027,
          0.047506,
          0.047979,
          0.045576,
          0.053033,
          0.065108,
          0.067563,
          0.085088,
          0.087457,
          0.1165,
          0.14832,
          0.19597,
          0.20055,
          0.19297,
          0.17172,
          0.1515,
          0.14644,
          0.13202,
          0.12065,
          0.11894,
          0.12607,
          0.13429,
          0.13912,
          0.16321,
          0.19807,
          0.22342,
          0.22549,
          0.23336,
          0.34492,
          0.41601,
          0.81823,
          1.1437,
          1.9955,
          2.4104,
          2.2109,
          1.8254,
          1.4159,
          0.87292,
          0.6051,
          0.45764,
          0.42213,
          0.40509,
          0.37964,
          0.37058,
          0.36312,
          0.32844,
          0.32496,
          0.32942,
          0.31262,
          0.29746,
          0.29527,
          0.29285,
          0.26988,
          0.27993,
          0.26987,
          0.26676,
          0.26097,
          0.26507,
          0.28014,
          0.28729,
          0.28752,
          0.27665,
          0.2699,
          0.27588,
          0.27183,
          0.31638,
          0.35479,
          0.37048,
          0.40487,
          0.4988,
          0.54779,
          0.58431,
          0.64544,
          0.73856,
          0.85102,
          1.0393,
          1.2934,
          1.657,
          2.1426,
          2.61,
          2.8979,
          2.834,
          2.5166,
          2.0389,
          1.6266,
          1.1925,
          0.94211,
          0.77912,
          0.69309,
          0.73802,
          0.77162,
          0.8764,
          0.9022,
          0.90017,
          0.79103,
          0.6862,
          0.54427,
          0.47736,
          0.45718,
          0.42156,
          0.47139,
          0.53635,
          0.62351,
          0.63279,
          0.59437,
          0.53275,
          0.4353,
          0.40892,
          0.42151,
          0.3226,
          0.36949,
          0.30411,
          0.31394,
          0.28267,
          0.2591,
          0.23559,
          0.22777,
          0.23995,
          0.25245,
          0.24077,
          0.22465,
          0.23032,
          0.22346,
          0.22732,
          0.23631,
          0.26871,
          0.28783,
          0.35676,
          0.44628,
          0.52729,
          0.64481,
          0.66265,
          0.71929,
          0.69863,
          0.74789,
          0.78432,
          0.8275,
          0.86671,
          0.92107,
          1.139,
          1.4467,
          2.0787,
          3.0189,
          4.6906,
          6.8711,
          9.1006,
          10.939,
          11.679,
          11.499,
          9.9988,
          7.8795,
          6.3042,
          4.3111,
          2.7062,
          1.5735,
          1.0325,
          0.80395,
          0.64745,
          0.7022,
          0.5886,
          0.51709,
          0.46339,
          0.491,
          0.62612,
          0.70562,
          0.78405,
          0.86227,
          1.0367,
          1.1276,
          1.0031,
          0.81867,
          0.83906,
          0.68649,
          0.63833,
          0.59416,
          0.60222,
          0.61331,
          0.63054,
          0.66634,
          0.70097,
          0.69938,
          0.72535,
          0.85697,
          0.95076,
          0.90777,
          0.8569,
          0.78905,
          0.7811,
          0.80459,
          0.75434,
          0.80466,
          0.80878,
          0.93707,
          0.94387,
          1.2752,
          1.457,
          1.3145,
          1.2024,
          1.2573,
          1.374,
          1.6145,
          2.1144,
          2.7608,
          3.6702,
          5.4463,
          8.6886,
          13.788,
          15.963,
          15.163,
          13.49,
          9.2125,
          9.344,
          4.066,
          2.302,
          2.0431,
          2.0324,
          2.1575,
          2.6803,
          5.2442,
          14.658,
          17.082,
          16.375,
          13.506,
          9.8571,
          4.4405,
          2.334,
          1.5209,
          1.5437,
          1.318,
          1.2911,
          1.3955,
          1.6284,
          2.4163,
          3.1618,
          3.2101,
          4.5897,
          5.5342,
          6.0293,
          6.3697,
          5.8046,
          4.9272,
          4.6649,
          2.9765,
          1.8752,
          1.3292,
          0.90144,
          0.75025,
          0.72686,
          0.74851,
          0.77164,
          1.0229,
          1.4656,
          2.4514,
          2.7382,
          2.8136,
          2.634,
          2.0913,
          1.683,
          1.688,
          1.4022,
          1.2951,
          1.159,
          1.1141,
          1.0395,
          1.1272,
          1.1581,
          1.4383,
          1.8589,
          2.8789,
          3.7558,
          4.9105,
          5.2549,
          4.8109,
          4.8964,
          3.3408,
          3.4666,
          2.497,
          2.5581,
          1.5782,
          0.92366,
          0.74103,
          0.77734,
          0.71907,
          0.72303,
          0.90805,
          1.0837,
          1.5844,
          2.3553,
          3.5284,
          3.5352,
          2.4587,
          1.4849,
          1.1565,
          1.0232,
          0.99947,
          1.2296,
          1.7976,
          1.8004,
          1.8368,
          1.529,
          1.2133,
          0.91651,
          0.68445,
          0.5711,
          0.54835,
          0.74389,
          1.2393,
          1.3851,
          1.2614,
          0.94737,
          0.77071,
          0.79751,
          0.76726
        ],
        [
          0.0046102,
          0.0041899,
          0.0038389,
          0.0037168,
          0.0033917,
          0.0031323,
          0.0026971,
          0.0025428,
          0.0023979,
          0.0023071,
          0.0022766,
          0.0022977,
          0.0023901,
          0.0023538,
          0.0024596,
          0.0023845,
          0.0024684,
          0.0030159,
          0.0035796,
          0.003627,
          0.0035546,
          0.0031647,
          0.0028193,
          0.0027178,
          0.0026899,
          0.0025855,
          0.0025673,
          0.0025759,
          0.0025432,
          0.0025169,
          0.0025841,
          0.0026023,
          0.002505,
          0.0026467,
          0.0025308,
          0.0026111,
          0.0030548,
          0.0037501,
          0.0043227,
          0.0044152,
          0.0040798,
          0.0036416,
          0.0032729,
          0.0030013,
          0.0028407,
          0.0027206,
          0.0027306,
          0.0028025,
          0.0027004,
          0.0026851,
          0.0025488,
          0.0027516,
          0.0026399,
          0.0028097,
          0.0024893,
          0.0024755,
          0.0024622,
          0.0024154,
          0.0024097,
          0.0026136,
          0.0027047,
          0.0028425,
          0.0033597,
          0.0041417,
          0.0043709,
          0.0043318,
          0.0038489,
          0.0034629,
          0.0031739,
          0.0026906,
          0.0026458,
          0.0025598,
          0.0025436,
          0.0025923,
          0.0027143,
          0.0028236,
          0.0030049,
          0.0033956,
          0.0039233,
          0.0051234,
          0.0063374,
          0.0066122,
          0.0055952,
          0.0065068,
          0.0066722,
          0.0055181,
          0.0045954,
          0.0042975,
          0.004295,
          0.0045675,
          0.0045192,
          0.0043905,
          0.0041563,
          0.0039314,
          0.0038608,
          0.0036943,
          0.0035578,
          0.0035293,
          0.0036032,
          0.0036869,
          0.0038042,
          0.0039875,
          0.0043232,
          0.0046264,
          0.0046415,
          0.0046334,
          0.0055153,
          0.0061038,
          0.0082728,
          0.0098723,
          0.012964,
          0.014233,
          0.013637,
          0.012408,
          0.010953,
          0.0085002,
          0.0070762,
          0.0061542,
          0.0059152,
          0.005789,
          0.0056046,
          0.0055376,
          0.005486,
          0.0052151,
          0.0051881,
          0.005222,
          0.0050911,
          0.0049665,
          0.0049485,
          0.0049288,
          0.0047316,
          0.0048205,
          0.0047336,
          0.0047078,
          0.0046623,
          0.0048136,
          0.0049446,
          0.0050034,
          0.0059952,
          0.008735,
          0.010627,
          0.009161,
          0.007747,
          0.009278,
          0.010946,
          0.0091513,
          0.006746,
          0.0065193,
          0.0067425,
          0.0069604,
          0.0073129,
          0.0078221,
          0.0083963,
          0.0092784,
          0.010351,
          0.011717,
          0.013328,
          0.014714,
          0.015506,
          0.015333,
          0.014446,
          0.012998,
          0.01161,
          0.0099391,
          0.0088336,
          0.0080335,
          0.0075772,
          0.0078198,
          0.0079966,
          0.0085232,
          0.0086508,
          0.008639,
          0.0081013,
          0.0075464,
          0.0067223,
          0.0062972,
          0.0061635,
          0.0059197,
          0.00626,
          0.0066841,
          0.0071993,
          0.0072537,
          0.0070315,
          0.0066587,
          0.0060221,
          0.0058417,
          0.0059294,
          0.005187,
          0.0055546,
          0.0050382,
          0.0051221,
          0.0048621,
          0.0046577,
          0.0044424,
          0.0043696,
          0.0044862,
          0.004603,
          0.0044991,
          0.0043495,
          0.0044049,
          0.0043436,
          0.0043885,
          0.0044835,
          0.0047932,
          0.0049929,
          0.0056222,
          0.0065317,
          0.0088259,
          0.013156,
          0.015317,
          0.013634,
          0.014157,
          0.01532,
          0.013304,
          0.011223,
          0.010215,
          0.0097452,
          0.010141,
          0.011187,
          0.013295,
          0.015974,
          0.019897,
          0.024101,
          0.027725,
          0.030479,
          0.031532,
          0.031266,
          0.029102,
          0.025813,
          0.023079,
          0.019069,
          0.015116,
          0.011522,
          0.0093338,
          0.0082374,
          0.0073938,
          0.007701,
          0.0070523,
          0.006611,
          0.0062596,
          0.0064432,
          0.0072751,
          0.0077246,
          0.0081425,
          0.0085405,
          0.0093655,
          0.0097695,
          0.0092195,
          0.0083256,
          0.0084303,
          0.0076292,
          0.0073584,
          0.0071009,
          0.0071501,
          0.0072176,
          0.0073178,
          0.0075239,
          0.0077179,
          0.0077104,
          0.0078535,
          0.0085389,
          0.0089917,
          0.0087895,
          0.0085414,
          0.0081981,
          0.0081586,
          0.0082827,
          0.010841,
          0.011193,
          0.011219,
          0.01264,
          0.012115,
          0.01408,
          0.015053,
          0.014299,
          0.013676,
          0.013993,
          0.014624,
          0.015853,
          0.018144,
          0.020735,
          0.023914,
          0.029146,
          0.036848,
          0.046487,
          0.050071,
          0.048783,
          0.045982,
          0.037967,
          0.038242,
          0.025191,
          0.01895,
          0.017854,
          0.017809,
          0.01835,
          0.020456,
          0.02863,
          0.047955,
          0.05183,
          0.050729,
          0.046057,
          0.039278,
          0.026352,
          0.019102,
          0.015423,
          0.015536,
          0.014359,
          0.014212,
          0.014776,
          0.015963,
          0.019449,
          0.022253,
          0.022426,
          0.026832,
          0.029474,
          0.030749,
          0.031631,
          0.030194,
          0.027813,
          0.027041,
          0.021608,
          0.017149,
          0.014439,
          0.011892,
          0.010851,
          0.010689,
          0.010839,
          0.011016,
          0.012671,
          0.015175,
          0.019625,
          0.020745,
          0.021031,
          0.020351,
          0.018133,
          0.022111,
          0.016293,
          0.020181,
          0.014275,
          0.018347,
          0.013245,
          0.01738,
          0.018093,
          0.018339,
          0.020444,
          0.023243,
          0.028922,
          0.033041,
          0.037788,
          0.039099,
          0.037403,
          0.037742,
          0.031169,
          0.031757,
          0.026954,
          0.027277,
          0.021434,
          0.016404,
          0.014707,
          0.01506,
          0.01448,
          0.014522,
          0.016273,
          0.017777,
          0.02149,
          0.026202,
          0.032074,
          0.032107,
          0.026777,
          0.020813,
          0.018372,
          0.017284,
          0.017088,
          0.01895,
          0.022909,
          0.022939,
          0.023166,
          0.021134,
          0.018842,
          0.016385,
          0.014168,
          0.01295,
          0.012696,
          0.014778,
          0.019061,
          0.020146,
          0.019229,
          0.016674,
          0.015065,
          0.01531,
          0.015018
        ]
      ]
    }
  },
  "C1049-003": {
    "reaction": {
      "0": {
        "x4_code": "(10-NE-22(P,N)11-NA-22,,SIG)",
        "0": {
          "code": [
            "10-NE-22",
            [
              "P,N"
            ],
            "11-NA-22,,SIG"
          ],
          "type": null,
          "target": "10-NE-22",
          "process": "P,N",
          "sf49": "11-NA-22,,SIG",
          "sf4": "11-NA-22",
          "sf5": null,
          "sf6": "SIG",
          "sf7": null,
          "sf8": null,
          "sf9": null
        },
        "type": null,
        "free_text": ""
      }
    },
    "extra_information": {
      "correction": {
        "0": [
          {
            "x4_code": null,
            "free_txt": [
              "Corrected for:",
              ". deadtime,",
              ". room background,",
              ". background from unknown contaminants,",
              ". leakage current."
            ]
          }
        ]
      },
      "err-analys": {
        "0": [
          {
            "x4_code": "(ERR-S)",
            "free_txt": [
              " Statistical uncertainty given.",
              "Overall normalization uncertainty is 9% below 4.6 MeV,",
              " rising to 10% at 5.4 MeV."
            ]
          }
        ]
      },
      "sample": {
        "0": [
          {
            "x4_code": null,
            "free_txt": [
              "22Ne targets implanted in Ta, prepared at Ruhr",
              " University Bocham, Germany. Targets thickness",
              " 6.7E+16 22Ne atoms/cm2."
            ]
          }
        ]
      }
    },
    "common": null,
    "data": {
      "heads": [
        "EN",
        "DATA",
        "ERR-S"
      ],
      "units": [
        "MEV",
        "MB",
        "MB"
      ],
      "data": [
        [
          3.7048,
          3.7048,
          3.7248,
          3.7449,
          3.7649,
          3.7749,
          3.7849,
          3.7899,
          3.7929,
          3.7949,
          3.7969,
          3.7989,
          3.8009,
          3.8029,
          3.8049,
          3.8069,
          3.809,
          3.8109,
          3.8129,
          3.815,
          3.8169,
          3.819,
          3.821,
          3.823,
          3.8249,
          3.827,
          3.829,
          3.831,
          3.833,
          3.835,
          3.837,
          3.839,
          3.841,
          3.843,
          3.845,
          3.847,
          3.849,
          3.851,
          3.853,
          3.855,
          3.857,
          3.859,
          3.861,
          3.863,
          3.865,
          3.867,
          3.869,
          3.871,
          3.873,
          3.875,
          3.877,
          3.879,
          3.881,
          3.883,
          3.885,
          3.887,
          3.889,
          3.891,
          3.8931,
          3.895,
          3.8971,
          3.8991,
          3.9011,
          3.9031,
          3.9051,
          3.907,
          3.9091,
          3.9111,
          3.9131,
          3.9151,
          3.9171,
          3.9171,
          3.9191,
          3.9211,
          3.9231,
          3.9251,
          3.9271,
          3.9291,
          3.9311,
          3.9331,
          3.9351,
          3.9371,
          3.9391,
          3.9411,
          3.9431,
          3.9451,
          3.9471,
          3.9491,
          3.9511,
          3.9531,
          3.9551,
          3.9571,
          3.9591,
          3.9611,
          3.9631,
          3.9651,
          3.9671,
          3.9691,
          3.9711,
          3.9732,
          3.9752,
          3.9772,
          3.9792,
          3.9812,
          3.9832,
          3.9853,
          3.9872,
          3.9892,
          3.9912,
          3.9932,
          3.9952,
          3.9972,
          3.9992,
          4.0012,
          4.0032,
          4.0052,
          4.0072,
          4.0092,
          4.0112,
          4.0132,
          4.0152,
          4.0172,
          4.0192,
          4.0212,
          4.0232,
          4.0252,
          4.0272,
          4.0292,
          4.0312,
          4.0332,
          4.0352,
          4.0352,
          4.0372,
          4.0392,
          4.0412,
          4.0432,
          4.0452,
          4.0472,
          4.0492,
          4.0513,
          4.0533,
          4.0553,
          4.0572,
          4.0592,
          4.0613,
          4.0633,
          4.0653,
          4.0673,
          4.0693,
          4.0713,
          4.0733,
          4.0753,
          4.0773,
          4.0793,
          4.0813,
          4.0833,
          4.0853,
          4.0873,
          4.0893,
          4.0913,
          4.0933,
          4.0953,
          4.0973,
          4.0993,
          4.1013,
          4.1033,
          4.1053,
          4.1073,
          4.1093,
          4.1113,
          4.1133,
          4.1153,
          4.1173,
          4.1194,
          4.1213,
          4.1233,
          4.1253,
          4.1274,
          4.1293,
          4.1314,
          4.1333,
          4.1353,
          4.1374,
          4.1394,
          4.1414,
          4.1434,
          4.1454,
          4.1474,
          4.1494,
          4.1514,
          4.1534,
          4.1554,
          4.1574,
          4.1594,
          4.1594,
          4.1614,
          4.1634,
          4.1654,
          4.1674,
          4.1694,
          4.1714,
          4.1734,
          4.1754,
          4.1774,
          4.1794,
          4.1814,
          4.1834,
          4.1854,
          4.1874,
          4.1894,
          4.1914,
          4.1935,
          4.1954,
          4.1974,
          4.1994,
          4.2014,
          4.2034,
          4.2054,
          4.2054,
          4.2055,
          4.2075,
          4.2095,
          4.2115,
          4.2125,
          4.2135,
          4.2154,
          4.2175,
          4.2195,
          4.2215,
          4.2235,
          4.2255,
          4.2275,
          4.2295,
          4.2295,
          4.2335,
          4.2355,
          4.2375,
          4.2395,
          4.2415,
          4.2435,
          4.2455,
          4.2475,
          4.2495,
          4.2515,
          4.2535,
          4.2555,
          4.2575,
          4.2595,
          4.2615,
          4.2635,
          4.2655,
          4.2675,
          4.2695,
          4.2715,
          4.2735,
          4.2755,
          4.2776,
          4.2796,
          4.2816,
          4.2836,
          4.2856,
          4.2876,
          4.2896,
          4.2916,
          4.2936,
          4.2956,
          4.2976,
          4.2996,
          4.3016,
          4.3036,
          4.3056,
          4.3076,
          4.3096,
          4.3116,
          4.3136,
          4.3156,
          4.3176,
          4.3196,
          4.3216,
          4.3236,
          4.3256,
          4.3276,
          4.3296,
          4.3316,
          4.3316,
          4.3336,
          4.3356,
          4.3376,
          4.3396,
          4.3416,
          4.3436,
          4.3457,
          4.3476,
          4.3497,
          4.3516,
          4.3537,
          4.3557,
          4.3577,
          4.3597,
          4.3617,
          4.3637,
          4.3657,
          4.3677,
          4.3696,
          4.3717,
          4.3737,
          4.3757,
          4.3777,
          4.3797,
          4.3817,
          4.3837,
          4.3857,
          4.3877,
          4.3897,
          4.3897,
          4.3917,
          4.3937,
          4.3937,
          4.3957,
          4.3977,
          4.3977,
          4.3997,
          4.4017,
          4.4037,
          4.4057,
          4.4077,
          4.4097,
          4.4117,
          4.4137,
          4.4157,
          4.4177,
          4.4197,
          4.4217,
          4.4237,
          4.4257,
          4.4257,
          4.4278,
          4.4297,
          4.4318,
          4.4337,
          4.4358,
          4.4378,
          4.4398,
          4.4418,
          4.4438,
          4.4458,
          4.4478,
          4.4498,
          4.4518,
          4.4538,
          4.4558,
          4.4578,
          4.4598,
          4.4618,
          4.4638,
          4.4658,
          4.4678,
          4.4698,
          4.4718,
          4.4738,
          4.4758,
          4.4778,
          4.4798,
          4.4818,
          4.4838,
          4.4858,
          4.4878,
          4.4898,
          4.4918,
          4.4938,
          4.4958,
          4.4978,
          4.4998,
          4.5019,
          4.5038,
          4.5058,
          4.5058,
          4.5058,
          4.5058,
          4.5058,
          4.5078,
          4.5098,
          4.5119,
          4.5138,
          4.5158,
          4.5179,
          4.5199,
          4.5219,
          4.5239,
          4.5259,
          4.5279,
          4.5299,
          4.5319,
          4.5339,
          4.5359,
          4.5379,
          4.5399,
          4.5419,
          4.5439,
          4.5459,
          4.5479,
          4.5499,
          4.5519,
          4.5539,
          4.5559,
          4.5579,
          4.5579,
          4.5599,
          4.5599,
          4.5599,
          4.5619,
          4.5619,
          4.5639,
          4.5659,
          4.5679,
          4.5699,
          4.5719,
          4.5739,
          4.5759,
          4.576,
          4.5779,
          4.5799,
          4.582,
          4.584,
          4.5859,
          4.5879,
          4.59,
          4.592,
          4.5939,
          4.596,
          4.598,
          4.5999,
          4.602,
          4.604,
          4.606,
          4.608,
          4.61,
          4.612,
          4.614,
          4.616,
          4.618,
          4.62,
          4.622,
          4.624,
          4.626,
          4.628,
          4.6285,
          4.63,
          4.632,
          4.634,
          4.636,
          4.638,
          4.64,
          4.642,
          4.644,
          4.646,
          4.648,
          4.65,
          4.652,
          4.654,
          4.6561,
          4.6581,
          4.6601,
          4.662,
          4.6641,
          4.666,
          4.6681,
          4.6701,
          4.6721,
          4.6741,
          4.6761,
          4.678,
          4.6801,
          4.6821,
          4.6841,
          4.6861,
          4.6881,
          4.69,
          4.6921,
          4.6941,
          4.6961,
          4.6981,
          4.7001,
          4.7021,
          4.7041,
          4.7061,
          4.7061,
          4.7061,
          4.7081,
          4.7101,
          4.7121,
          4.7141,
          4.7161,
          4.7181,
          4.7201,
          4.7221,
          4.7241,
          4.7261,
          4.7281,
          4.7302,
          4.7321,
          4.7341,
          4.7361,
          4.7382,
          4.7402,
          4.7422,
          4.7441,
          4.7462,
          4.7482,
          4.7502,
          4.7522,
          4.7542,
          4.7562,
          4.7582,
          4.7602,
          4.7622,
          4.7642,
          4.7662,
          4.7682,
          4.7702,
          4.7722,
          4.7742,
          4.7762,
          4.7782,
          4.7802,
          4.7822,
          4.7842,
          4.7862,
          4.7882,
          4.7902,
          4.7922,
          4.7942,
          4.7962,
          4.7972,
          4.7982,
          4.8002,
          4.8022,
          4.8042,
          4.8062,
          4.8082,
          4.8102,
          4.8122,
          4.8142,
          4.8163,
          4.8183,
          4.8202,
          4.8223,
          4.8242,
          4.8263,
          4.8282,
          4.8303,
          4.8323,
          4.8343,
          4.8363,
          4.8383,
          4.8402,
          4.8423,
          4.8443,
          4.8463,
          4.8483,
          4.8503,
          4.8523,
          4.8543,
          4.8563,
          4.8583,
          4.8603,
          4.8623,
          4.8643,
          4.8663,
          4.8683,
          4.8703,
          4.8723,
          4.8743,
          4.8764,
          4.8783,
          4.8803,
          4.8823,
          4.8843,
          4.8864,
          4.8883,
          4.8904,
          4.8923,
          4.8943,
          4.8963,
          4.8983,
          4.9003,
          4.9023,
          4.9044,
          4.9063,
          4.9084,
          4.9104,
          4.9123,
          4.9144,
          4.9144,
          4.9164,
          4.9184,
          4.9204,
          4.9224,
          4.9244,
          4.9264,
          4.9284,
          4.9304,
          4.9324,
          4.9344,
          4.9364,
          4.9384,
          4.9404,
          4.9424,
          4.9444,
          4.9464,
          4.9484,
          4.9504,
          4.9524,
          4.9544,
          4.9564,
          4.9584,
          4.9605,
          4.9624,
          4.9645,
          4.9664,
          4.9684,
          4.9685,
          4.9704,
          4.9724,
          4.9745,
          4.9764,
          4.9784,
          4.9805,
          4.9824,
          4.9845,
          4.9865,
          4.9885,
          4.9905,
          4.9925,
          4.9945,
          4.9965,
          4.9985,
          5.0005,
          5.0025,
          5.0045,
          5.0065,
          5.0085,
          5.0105,
          5.0125,
          5.0145,
          5.0165,
          5.0185,
          5.0205,
          5.0225,
          5.0245,
          5.0265,
          5.0285,
          5.0305,
          5.0325,
          5.0345,
          5.0345,
          5.0365,
          5.0395,
          5.0425,
          5.0455,
          5.0485,
          5.0515,
          5.0546,
          5.0575,
          5.0605,
          5.0636,
          5.0666,
          5.0696,
          5.0726,
          5.0756,
          5.0786,
          5.0816,
          5.0846,
          5.0876,
          5.0906,
          5.0936,
          5.0966,
          5.0996,
          5.1026,
          5.1056,
          5.1086,
          5.1116,
          5.1146,
          5.1176,
          5.1206,
          5.1237,
          5.1266,
          5.1296,
          5.1327,
          5.1357,
          5.1386,
          5.1417,
          5.1447,
          5.1477,
          5.1507,
          5.1537,
          5.1567,
          5.1567,
          5.1597,
          5.1627,
          5.1657,
          5.1687,
          5.1717,
          5.1747,
          5.1777,
          5.1807,
          5.1837,
          5.1867,
          5.1897,
          5.1928,
          5.1957,
          5.1987,
          5.2017,
          5.2048,
          5.2077,
          5.2108,
          5.2138,
          5.2168,
          5.2197,
          5.2227,
          5.2258,
          5.2288,
          5.2318,
          5.2348,
          5.2378,
          5.2408,
          5.2438,
          5.2468,
          5.2498,
          5.2528,
          5.2558,
          5.2588,
          5.2618,
          5.2648,
          5.2678,
          5.2708,
          5.2738,
          5.2768,
          5.2798,
          5.2828,
          5.2859,
          5.2889,
          5.2919,
          5.2949,
          5.2978,
          5.3009,
          5.3039,
          5.3069,
          5.3099,
          5.3129,
          5.3159,
          5.3189,
          5.3219,
          5.3249,
          5.3279,
          5.3309,
          5.3339,
          5.3369,
          5.3399,
          5.3429,
          5.3459,
          5.3489,
          5.3519,
          5.3549,
          5.358,
          5.3609,
          5.3639,
          5.3669,
          5.3699,
          5.373,
          5.376,
          5.379,
          5.382,
          5.385,
          5.388,
          5.391,
          5.394,
          5.397,
          5.4,
          5.403,
          5.405,
          5.407
        ],
        [
          3.0921,
          5.6439,
          3.6437,
          2.6595,
          1.5479,
          4.5858,
          3.5099,
          1.9893,
          3.0544,
          4.9094,
          4.4057,
          4.0716,
          3.7982,
          2.1981,
          5.2282,
          5.6083,
          5.5275,
          5.5744,
          4.2396,
          5.3056,
          7.4548,
          14.696,
          9.6763,
          6.8405,
          7.9334,
          5.9893,
          4.0268,
          5.3423,
          7.044,
          5.4874,
          4.6529,
          5.0398,
          4.7249,
          4.6951,
          5.0011,
          4.6733,
          4.1622,
          3.8706,
          4.8477,
          4.084,
          4.1161,
          5.0954,
          4.452,
          5.9571,
          5.6494,
          5.5854,
          3.7268,
          5.01,
          4.1996,
          4.825,
          4.8331,
          6.1481,
          6.8985,
          6.3504,
          7.0763,
          7.4769,
          5.6726,
          7.8215,
          8.9641,
          9.1063,
          12.487,
          15.846,
          18.293,
          16.156,
          11.788,
          9.4321,
          7.8766,
          7.1369,
          7.6966,
          6.2307,
          7.1142,
          9.0148,
          8.0366,
          8.8315,
          10.349,
          11.359,
          11.648,
          12.389,
          13.199,
          13.828,
          15.536,
          13.981,
          16.884,
          17.789,
          16.502,
          18.909,
          18.654,
          19.632,
          18.382,
          18.857,
          17.645,
          18.045,
          20.107,
          20.397,
          23.484,
          25.487,
          27.276,
          26.615,
          24.113,
          23.467,
          23.294,
          24.025,
          26.67,
          28.71,
          32.73,
          34.541,
          42.405,
          50.706,
          62.178,
          71.8,
          84.72,
          99.758,
          105.89,
          110.58,
          103.81,
          98.185,
          86.951,
          81.246,
          68.105,
          58.391,
          53.249,
          49.235,
          42.268,
          40.403,
          37.145,
          30.101,
          25.262,
          21.455,
          20.391,
          20.137,
          20.126,
          23.585,
          26.232,
          28.029,
          28.382,
          28.308,
          26.972,
          28.508,
          30.051,
          28.337,
          30.943,
          31.01,
          34.145,
          36.453,
          37.148,
          37.81,
          41.603,
          43.663,
          46.769,
          51.38,
          52.75,
          57.358,
          57.768,
          62.358,
          69.368,
          72.455,
          77.863,
          84.776,
          94.505,
          104.33,
          107.53,
          116.34,
          126.24,
          146.58,
          168.98,
          217.91,
          289.7,
          306.14,
          245.95,
          186.8,
          141.38,
          125.36,
          114.59,
          112.09,
          111.47,
          109.64,
          113.77,
          117.68,
          116.8,
          113.56,
          114.53,
          113.03,
          112.76,
          111.16,
          107.21,
          107.05,
          101.31,
          102.8,
          98.801,
          95.694,
          93.552,
          92.139,
          89.956,
          85.066,
          89.082,
          83.025,
          79.076,
          80.124,
          80.949,
          77.783,
          70.217,
          72.527,
          69.738,
          71.235,
          67.729,
          73.564,
          72.52,
          75.737,
          106.16,
          131.64,
          82.736,
          69.13,
          60.93,
          55.006,
          51.751,
          50.822,
          49.559,
          46.044,
          58.11,
          47.351,
          35.506,
          28.473,
          30.918,
          30.274,
          31.355,
          40.328,
          65.312,
          125.76,
          82.61,
          61.54,
          41.825,
          34.172,
          28.421,
          28.712,
          29.358,
          36.365,
          43.619,
          44.536,
          48.649,
          46.155,
          48.266,
          49.77,
          50.435,
          50.886,
          57.032,
          55.714,
          57.698,
          48.407,
          43.295,
          38.548,
          34.255,
          36.117,
          35.39,
          37.0,
          36.067,
          37.1,
          38.445,
          38.911,
          39.961,
          44.608,
          47.094,
          48.541,
          51.235,
          59.034,
          60.028,
          57.488,
          57.621,
          58.716,
          56.86,
          59.304,
          62.318,
          63.29,
          65.507,
          65.025,
          59.874,
          57.051,
          53.6,
          47.984,
          52.035,
          46.176,
          46.157,
          38.833,
          38.729,
          38.785,
          39.143,
          32.94,
          34.259,
          29.955,
          29.166,
          24.226,
          20.457,
          15.397,
          16.726,
          16.125,
          14.787,
          15.721,
          32.224,
          31.507,
          23.031,
          18.367,
          18.111,
          12.838,
          14.549,
          11.322,
          13.122,
          10.086,
          9.615,
          12.06,
          9.1661,
          8.9925,
          8.541,
          7.8227,
          8.2648,
          7.648,
          8.8086,
          8.7864,
          11.126,
          11.766,
          13.302,
          15.437,
          20.187,
          29.508,
          44.215,
          57.787,
          82.542,
          96.459,
          96.41,
          93.561,
          89.844,
          81.013,
          73.651,
          66.305,
          63.696,
          59.043,
          50.311,
          52.892,
          51.122,
          51.116,
          48.134,
          48.249,
          45.555,
          44.931,
          44.948,
          42.03,
          39.734,
          42.489,
          44.006,
          46.897,
          46.537,
          52.06,
          64.423,
          88.668,
          76.586,
          55.903,
          47.146,
          48.07,
          51.631,
          58.841,
          72.14,
          70.38,
          61.665,
          59.435,
          50.488,
          49.839,
          52.097,
          66.771,
          135.95,
          126.49,
          140.49,
          132.44,
          120.67,
          97.586,
          89.336,
          74.642,
          69.159,
          66.436,
          77.688,
          82.459,
          83.75,
          85.9,
          75.53,
          73.269,
          68.508,
          65.007,
          67.218,
          65.88,
          63.646,
          64.026,
          62.843,
          63.339,
          64.02,
          66.997,
          67.758,
          65.92,
          72.096,
          74.22,
          77.569,
          82.462,
          80.612,
          89.133,
          98.137,
          122.0,
          161.64,
          236.83,
          276.43,
          234.4,
          239.93,
          135.46,
          156.85,
          164.99,
          108.3,
          113.09,
          128.72,
          129.39,
          96.765,
          75.666,
          63.97,
          62.831,
          58.829,
          52.738,
          54.952,
          57.464,
          63.861,
          71.371,
          84.739,
          105.26,
          131.33,
          121.88,
          97.189,
          82.129,
          80.647,
          75.119,
          76.588,
          77.954,
          81.181,
          89.074,
          104.24,
          114.96,
          116.6,
          113.85,
          115.99,
          121.19,
          130.74,
          144.58,
          151.14,
          159.38,
          168.74,
          175.44,
          185.22,
          192.31,
          204.77,
          210.51,
          205.87,
          211.25,
          222.74,
          232.6,
          247.79,
          260.34,
          253.18,
          234.26,
          201.81,
          170.74,
          160.54,
          152.36,
          143.15,
          143.81,
          141.33,
          140.52,
          136.27,
          140.46,
          141.14,
          143.16,
          142.74,
          145.79,
          148.58,
          153.05,
          160.23,
          166.64,
          196.57,
          212.52,
          198.88,
          175.77,
          162.45,
          156.79,
          151.14,
          115.94,
          123.38,
          151.01,
          105.91,
          103.43,
          99.278,
          99.594,
          90.066,
          88.55,
          96.955,
          104.57,
          102.22,
          110.91,
          111.52,
          117.38,
          121.85,
          123.99,
          106.25,
          117.35,
          131.54,
          141.24,
          148.42,
          160.82,
          173.82,
          183.76,
          183.99,
          168.46,
          166.85,
          186.89,
          195.49,
          215.56,
          235.32,
          248.38,
          271.55,
          294.2,
          309.13,
          326.58,
          353.31,
          363.82,
          387.05,
          398.28,
          410.23,
          422.27,
          435.01,
          453.16,
          480.15,
          501.97,
          516.04,
          508.37,
          516.79,
          495.87,
          459.04,
          428.9,
          397.03,
          376.93,
          346.83,
          326.14,
          315.92,
          297.1,
          292.86,
          280.96,
          273.04,
          265.57,
          266.04,
          267.32,
          262.26,
          253.58,
          252.87,
          266.22,
          266.21,
          276.86,
          267.91,
          267.18,
          267.07,
          267.68,
          269.85,
          272.26,
          267.74,
          274.56,
          274.06,
          281.36,
          289.2,
          288.98,
          290.8,
          291.87,
          297.64,
          301.44,
          295.12,
          291.54,
          288.44,
          281.22,
          278.31,
          269.86,
          272.38,
          273.47,
          280.43,
          280.15,
          272.43,
          270.05,
          253.08,
          244.45,
          234.87,
          220.68,
          209.67,
          208.4,
          205.48,
          206.97,
          192.01,
          200.13,
          193.98,
          198.58,
          195.2,
          196.01,
          204.72,
          204.35,
          198.15,
          198.26,
          193.02,
          192.21,
          191.15,
          185.38,
          187.53,
          182.95,
          189.29,
          180.63,
          183.24,
          182.41,
          177.95,
          179.21,
          180.77,
          182.98,
          182.28,
          186.89,
          194.78,
          204.3,
          218.73,
          217.92,
          239.09,
          247.46,
          266.95,
          296.9,
          304.2,
          322.03,
          322.75,
          335.96,
          336.9,
          339.74,
          351.76,
          341.82,
          342.49,
          336.15,
          339.67,
          339.43,
          347.15,
          358.26,
          364.11,
          362.59,
          381.35,
          369.2,
          388.24,
          377.82,
          372.63,
          363.41,
          358.4,
          350.39,
          346.45,
          338.28,
          333.64,
          325.74,
          321.74,
          324.16,
          320.12,
          309.5,
          308.08,
          301.17,
          292.3,
          289.26,
          269.21,
          266.17,
          257.04,
          260.86,
          260.98,
          276.93,
          291.8,
          296.76,
          279.45,
          264.14,
          256.86,
          237.91,
          230.82,
          226.28,
          215.23,
          199.15,
          203.69,
          195.94,
          192.87,
          189.3,
          188.19,
          186.25,
          183.06,
          190.28,
          185.56,
          186.98,
          186.6,
          195.34,
          200.88,
          201.21,
          218.1,
          235.25,
          254.55,
          261.75,
          238.89,
          281.35,
          267.41,
          283.07,
          297.68,
          322.7,
          333.92,
          365.1,
          381.18,
          350.01,
          332.31,
          315.11,
          297.43,
          278.74,
          271.79,
          267.98,
          265.17,
          258.15,
          256.5,
          256.65,
          253.58,
          255.76,
          259.66,
          241.76,
          244.33,
          241.13,
          239.34,
          249.24,
          256.58,
          263.6,
          265.04,
          277.25,
          284.88,
          294.57,
          295.39,
          292.09,
          291.12,
          282.33,
          288.32,
          315.22,
          334.53,
          305.65,
          268.17,
          247.28,
          217.32,
          217.95,
          222.68,
          223.68,
          258.83,
          269.4,
          277.08,
          291.61,
          285.32,
          279.91,
          277.6,
          257.1,
          232.24,
          213.34,
          194.1,
          185.67,
          190.8,
          202.33,
          221.13,
          244.06,
          261.14,
          260.44,
          241.27,
          241.43,
          239.81,
          242.7,
          228.82,
          231.85,
          238.59,
          203.46,
          201.53,
          193.99,
          197.01,
          205.8,
          218.34,
          220.91,
          210.49,
          235.16,
          237.96,
          240.74,
          241.39,
          244.05
        ],
        [
          3.913,
          3.997,
          2.8805,
          2.4816,
          2.3141,
          2.147,
          2.1177,
          2.1487,
          2.172,
          2.1826,
          2.2018,
          2.2202,
          2.212,
          2.2048,
          2.2253,
          2.1697,
          2.1543,
          2.1404,
          2.1331,
          2.1543,
          2.1779,
          2.3697,
          2.2572,
          2.1783,
          2.1335,
          2.111,
          2.086,
          2.1113,
          2.1546,
          2.1437,
          2.1448,
          2.1725,
          2.1753,
          2.183,
          2.1973,
          2.1983,
          2.1929,
          2.1917,
          2.2225,
          2.2057,
          2.1976,
          2.2152,
          2.1903,
          2.2222,
          2.2064,
          2.2184,
          2.1809,
          2.2241,
          2.2099,
          2.2314,
          2.224,
          2.234,
          2.184,
          2.0903,
          2.0573,
          2.13,
          2.1673,
          2.2943,
          2.3384,
          2.3387,
          2.4306,
          2.5017,
          2.5058,
          2.3906,
          2.2434,
          2.2475,
          2.3022,
          2.3469,
          2.362,
          2.3087,
          2.3304,
          2.3766,
          2.3529,
          2.3719,
          2.4076,
          2.4311,
          2.4419,
          2.4592,
          2.4741,
          2.4801,
          2.5076,
          2.4244,
          2.4503,
          2.44,
          2.3828,
          2.4215,
          2.4532,
          2.5189,
          2.5386,
          2.6025,
          2.6348,
          2.6589,
          2.7094,
          2.7178,
          2.7829,
          2.8243,
          2.8666,
          2.8617,
          2.8192,
          2.8112,
          2.8131,
          2.8288,
          2.883,
          2.9261,
          3.0065,
          3.0463,
          3.199,
          3.3555,
          3.5545,
          3.7153,
          3.9173,
          4.1315,
          4.2154,
          4.2782,
          4.1871,
          4.1075,
          3.9461,
          3.8601,
          3.6614,
          3.5078,
          3.4253,
          3.3713,
          3.2684,
          3.2505,
          3.2108,
          3.1045,
          3.031,
          2.9724,
          2.9634,
          2.9668,
          2.974,
          3.0333,
          3.0779,
          3.1062,
          3.1085,
          3.1033,
          3.0745,
          3.1092,
          3.1453,
          3.1247,
          3.182,
          3.1949,
          3.2582,
          3.3049,
          3.3239,
          3.3405,
          3.4106,
          3.4425,
          3.4933,
          3.5663,
          3.587,
          3.6552,
          3.6557,
          3.7184,
          3.8191,
          3.8623,
          3.9352,
          4.0383,
          4.1714,
          4.3064,
          4.3522,
          4.47,
          4.6005,
          4.844,
          5.103,
          5.6251,
          6.3129,
          6.4643,
          5.9153,
          5.3232,
          4.8227,
          4.6388,
          4.513,
          4.4894,
          4.4882,
          4.4735,
          4.5372,
          4.5881,
          4.5843,
          4.5522,
          4.5703,
          4.5583,
          4.5608,
          4.5418,
          4.4966,
          4.4991,
          4.4301,
          4.4516,
          4.4026,
          4.3643,
          4.3384,
          4.321,
          4.295,
          4.2287,
          4.282,
          4.2017,
          4.1486,
          4.1654,
          4.1993,
          4.1732,
          4.0794,
          4.116,
          4.0765,
          3.9818,
          3.8544,
          3.8913,
          3.8535,
          3.9001,
          4.4633,
          4.708,
          3.9767,
          3.7799,
          3.7085,
          3.7225,
          3.7868,
          3.8368,
          3.8123,
          3.7306,
          3.9145,
          3.7514,
          3.5851,
          3.5011,
          3.5773,
          3.5804,
          3.61,
          3.7696,
          4.1333,
          4.8942,
          4.3692,
          4.0954,
          3.8235,
          3.7372,
          3.6698,
          3.6755,
          3.6992,
          3.8059,
          3.8281,
          3.7708,
          3.7684,
          3.6765,
          3.6587,
          3.7168,
          3.7722,
          3.8336,
          3.9886,
          4.0462,
          4.0983,
          3.9884,
          3.9324,
          3.8758,
          3.8207,
          3.8634,
          3.8671,
          3.9041,
          3.9029,
          3.9299,
          3.9579,
          3.9741,
          3.9972,
          4.0723,
          4.1167,
          4.1523,
          4.2047,
          4.3236,
          4.352,
          4.3339,
          4.3443,
          4.3663,
          4.3501,
          4.3886,
          4.4349,
          4.4605,
          4.4989,
          4.5035,
          4.447,
          4.4187,
          4.371,
          4.2928,
          4.3403,
          4.2589,
          4.253,
          4.1613,
          4.1677,
          4.1808,
          4.1818,
          4.1086,
          4.1346,
          4.0834,
          4.0755,
          4.0064,
          3.9495,
          3.8676,
          3.8632,
          3.8334,
          3.8134,
          3.8452,
          4.1001,
          4.0851,
          3.9588,
          3.8926,
          3.9015,
          3.8421,
          3.88,
          3.8382,
          3.8741,
          3.8354,
          3.8332,
          3.865,
          3.8175,
          3.8105,
          3.7984,
          3.7823,
          3.7914,
          3.7876,
          3.8016,
          3.8096,
          3.8498,
          3.8621,
          3.8942,
          3.9322,
          4.0037,
          4.1425,
          4.3525,
          4.5361,
          4.8477,
          5.0224,
          5.0342,
          5.0141,
          4.9829,
          4.8938,
          4.8149,
          4.7331,
          4.7076,
          4.6588,
          4.5511,
          4.5855,
          4.5915,
          4.6079,
          4.5774,
          4.5722,
          4.5124,
          4.3799,
          4.2751,
          4.1479,
          4.0442,
          4.0402,
          4.2656,
          4.4747,
          4.5835,
          4.697,
          4.8169,
          4.6968,
          4.5835,
          4.4543,
          4.331,
          4.2787,
          4.3263,
          4.4271,
          4.606,
          4.5905,
          4.4787,
          4.4362,
          4.307,
          4.2916,
          4.3169,
          4.5096,
          5.3464,
          5.2598,
          5.4286,
          5.354,
          5.2351,
          4.9949,
          4.9159,
          4.7567,
          4.7114,
          4.6845,
          4.8102,
          4.8668,
          4.8832,
          4.9066,
          4.7767,
          4.7396,
          4.6709,
          4.6171,
          4.6332,
          4.6214,
          4.6011,
          4.6161,
          4.6132,
          4.6333,
          4.6543,
          4.7034,
          4.7242,
          4.7128,
          4.799,
          4.8324,
          4.8807,
          4.9451,
          4.9309,
          5.0367,
          5.1452,
          5.4131,
          5.8293,
          6.5427,
          6.8943,
          6.5437,
          6.5949,
          5.6136,
          5.8313,
          5.9125,
          5.3445,
          5.3964,
          5.5776,
          5.602,
          5.2672,
          5.0418,
          4.9172,
          4.9122,
          4.8709,
          4.7962,
          4.821,
          4.8498,
          4.925,
          5.0126,
          5.1652,
          5.4032,
          5.69,
          5.6071,
          5.3609,
          5.2132,
          5.2076,
          5.1552,
          5.1799,
          5.2035,
          5.2453,
          5.3257,
          5.489,
          5.611,
          5.6398,
          5.6334,
          5.733,
          5.8684,
          6.0492,
          6.2709,
          6.4243,
          6.5324,
          6.6203,
          6.6942,
          6.7885,
          6.8446,
          6.9364,
          6.9548,
          6.8807,
          6.8994,
          6.9702,
          7.0281,
          7.1472,
          7.2579,
          7.2358,
          7.1369,
          6.9283,
          6.6822,
          6.6047,
          6.535,
          6.4449,
          6.4347,
          6.4092,
          6.3913,
          6.3348,
          6.3484,
          6.3191,
          6.2438,
          6.1593,
          6.1332,
          6.1247,
          6.1489,
          6.3438,
          6.5295,
          6.936,
          7.2139,
          7.2603,
          7.0691,
          6.9446,
          6.8724,
          6.7891,
          6.4298,
          6.5065,
          6.7417,
          6.392,
          6.4272,
          6.4462,
          6.5245,
          6.4838,
          6.4772,
          6.5484,
          6.6099,
          6.5772,
          6.6372,
          6.6403,
          6.6923,
          6.7363,
          6.7633,
          6.6139,
          6.7344,
          6.8791,
          6.9834,
          7.0641,
          7.1883,
          7.2989,
          7.3835,
          7.3901,
          7.2711,
          7.2635,
          7.4468,
          7.536,
          7.714,
          7.8856,
          8.0059,
          8.178,
          8.3474,
          8.4598,
          8.5879,
          8.7742,
          8.8699,
          9.0458,
          9.1443,
          9.2437,
          9.3408,
          9.4307,
          9.5534,
          9.7144,
          9.8615,
          9.939,
          9.8968,
          9.9615,
          9.8322,
          9.6156,
          9.4368,
          9.243,
          9.1303,
          8.9447,
          8.8187,
          8.76,
          8.638,
          8.5936,
          8.4965,
          8.4234,
          8.3564,
          8.3409,
          8.3588,
          8.334,
          8.2852,
          8.2931,
          8.4008,
          8.4183,
          8.5093,
          8.4705,
          8.4887,
          8.5122,
          8.5222,
          8.544,
          8.5662,
          8.5454,
          8.6023,
          8.607,
          8.6663,
          8.7322,
          8.7376,
          8.7628,
          8.8036,
          8.8703,
          8.9206,
          8.9089,
          8.9093,
          8.9166,
          8.8957,
          8.9003,
          8.8697,
          8.9153,
          8.9362,
          9.0014,
          9.006,
          8.9676,
          8.9606,
          8.8576,
          8.808,
          8.7492,
          8.659,
          8.5837,
          8.5834,
          8.5743,
          8.5912,
          8.4946,
          8.5522,
          8.5186,
          8.5608,
          8.5495,
          8.5676,
          8.6379,
          8.6474,
          8.622,
          8.6415,
          8.6229,
          8.6358,
          8.6475,
          8.6271,
          8.6615,
          8.6496,
          8.7138,
          8.6751,
          8.7107,
          8.7245,
          8.7093,
          8.7354,
          8.7627,
          8.7936,
          8.8168,
          8.8593,
          8.9316,
          9.0088,
          9.1089,
          9.1026,
          9.2509,
          9.3158,
          9.4519,
          9.6512,
          9.7051,
          9.8296,
          9.8446,
          9.9386,
          9.9514,
          9.9855,
          10.07,
          10.027,
          10.047,
          10.031,
          10.068,
          10.085,
          10.146,
          10.227,
          10.278,
          10.289,
          10.418,
          10.364,
          10.491,
          10.444,
          10.428,
          10.386,
          10.367,
          10.331,
          10.318,
          10.257,
          10.22,
          10.162,
          10.129,
          10.142,
          10.109,
          10.032,
          10.008,
          9.9518,
          9.9062,
          9.9079,
          9.8102,
          9.8174,
          9.7915,
          9.8516,
          9.8889,
          10.009,
          10.123,
          10.176,
          10.09,
          10.019,
          10.0,
          9.9179,
          9.9214,
          9.9408,
          9.9216,
          9.8729,
          9.9509,
          9.9556,
          9.9733,
          9.981,
          10.004,
          10.023,
          10.035,
          10.111,
          10.115,
          10.18,
          10.237,
          10.345,
          10.434,
          10.496,
          10.651,
          10.802,
          10.952,
          11.031,
          10.943,
          11.177,
          11.136,
          11.255,
          11.365,
          11.528,
          11.616,
          11.806,
          11.916,
          11.78,
          11.714,
          11.65,
          11.596,
          11.533,
          11.526,
          11.531,
          11.538,
          11.518,
          11.493,
          11.43,
          11.37,
          11.353,
          11.361,
          11.27,
          11.454,
          11.696,
          11.951,
          12.275,
          12.6,
          12.924,
          13.228,
          13.588,
          13.641,
          13.683,
          13.688,
          13.661,
          13.625,
          13.552,
          13.591,
          13.855,
          14.074,
          14.086,
          14.067,
          14.115,
          14.137,
          14.208,
          14.245,
          14.265,
          14.421,
          14.47,
          14.502,
          14.56,
          14.597,
          14.637,
          14.7,
          14.68,
          14.651,
          14.65,
          14.637,
          14.655,
          14.724,
          14.823,
          14.952,
          15.091,
          15.202,
          15.247,
          15.22,
          15.276,
          15.323,
          15.396,
          15.388,
          15.463,
          15.805,
          15.734,
          15.79,
          15.83,
          15.901,
          16.0,
          15.852,
          15.924,
          15.944,
          16.103,
          16.178,
          16.248,
          16.296,
          16.349
        ]
      ]
    }
  }
}