{
  "bib": {
    "title": "J.A.Harvey Files (File 5)",
    "authors": [
      {
        "name": "R.W.Benjamin"
      },
      {
        "name": "C.E.Ahlfeld"
      },
      {
        "name": "J.A.Harvey"
      },
      {
        "name": "N.W.Hill"
      }
    ],
    "institutes": [
      {
        "x4_code": "(1USAORL)",
        "free_txt": []
      }
    ],
    "references": {
      "0": [
        {
          "x4_code": "(W,HARVEY,5,1998)",
          "free_txt": [
            " File 5 on Harvey's CD."
          ],
          "publication_year": "1998"
        }
      ]
    },
    "facility": {
      "0": [
        {
          "x4_code": "(LINAC,1USAORL)",
          "free_txt": [
            "  ORELA"
          ],
          "facility_type": "(LINAC)",
          "insitute": "(1USAORL)"
        }
      ]
    },
    "history": [
      {
        "x4_code": "(20160126C)",
        "free_txt": [
          " BP"
        ]
      }
    ]
  },
  "14247-001": {
    "extra_information": {
      "detector": {
        "0": [
          {
            "x4_code": "(GLASD)",
            "free_txt": [
              " 6Li glass."
            ]
          }
        ]
      },
      "facility": {
        "0": [
          {
            "x4_code": "(LINAC,1USAORL)",
            "free_txt": [
              "  ORELA"
            ]
          }
        ]
      },
      "method": {
        "0": [
          {
            "x4_code": "(TOF)",
            "free_txt": [
              " 17.711 m Flight Path."
            ]
          }
        ]
      }
    }
  },
  "14247-002": {
    "reaction": {
      "0": {
        "x4_code": "(96-CM-244(N,TOT),,SIG)",
        "0": {
          "code": [
            "96-CM-244",
            [
              "N,TOT"
            ],
            ",,SIG"
          ],
          "type": null,
          "target": "96-CM-244",
          "process": "N,TOT",
          "sf49": ",,SIG",
          "sf4": null,
          "sf5": null,
          "sf6": "SIG",
          "sf7": null,
          "sf8": null,
          "sf9": null
        },
        "type": null,
        "free_text": " Run: 24432."
      }
    },
    "extra_information": {
      "err-analys": {
        "0": [
          {
            "x4_code": "(DATA-ERR)",
            "free_txt": [
              " Absolute uncertainty."
            ]
          }
        ]
      },
      "sample": {
        "0": [
          {
            "x4_code": null,
            "free_txt": [
              "244CmO2 Thickness: 7413 b/atom, measured at RT."
            ]
          }
        ]
      },
      "status": {
        "0": [
          {
            "x4_code": "(TABLE)",
            "free_txt": [
              " J. Harvey's CD."
            ]
          }
        ]
      }
    },
    "common": null,
    "data": {
      "heads": [
        "EN",
        "DATA",
        "DATA-ERR"
      ],
      "units": [
        "EV",
        "B",
        "B"
      ],
      "data": [
        [
          0.76473,
          0.77117,
          0.77769,
          0.78429,
          0.79097,
          0.79774,
          0.8046,
          0.81155,
          0.81859,
          0.82572,
          0.83294,
          0.84026,
          0.84767,
          0.85519,
          0.8628,
          0.87052,
          0.87834,
          0.88626,
          0.8943,
          0.90244,
          0.9107,
          0.91907,
          0.92755,
          0.93615,
          0.94488,
          0.95372,
          0.95969,
          0.96269,
          0.96571,
          0.96874,
          0.97179,
          0.97485,
          0.97792,
          0.98102,
          0.98412,
          0.98724,
          0.99037,
          0.99352,
          0.99669,
          0.99987,
          1.0031,
          1.0063,
          1.0095,
          1.0127,
          1.016,
          1.0193,
          1.0226,
          1.0259,
          1.0292,
          1.0325,
          1.0359,
          1.0392,
          1.0426,
          1.046,
          1.0495,
          1.0529,
          1.0563,
          1.0598,
          1.0633,
          1.0668,
          1.0703,
          1.0739,
          1.0774,
          1.081,
          1.0846,
          1.0882,
          1.0918,
          1.0955,
          1.0991,
          1.1028,
          1.1065,
          1.1102,
          1.114,
          1.1177,
          1.1215,
          1.1253,
          1.1291,
          1.133,
          1.1368,
          1.1407,
          1.1446,
          1.1485,
          1.1524,
          1.1564,
          1.1604,
          1.1684,
          1.1805,
          1.1929,
          1.2055,
          1.2182,
          1.2312,
          1.2444,
          1.2577,
          1.2713,
          1.2852,
          1.2992,
          1.3135,
          1.328,
          1.3428,
          1.3578,
          1.373,
          1.3886,
          1.4043,
          1.4204,
          1.4367,
          1.4533,
          1.4702,
          1.4874,
          1.5049,
          1.5228,
          1.5409,
          1.5593,
          1.576,
          1.5861,
          1.5956,
          1.6053,
          1.6151,
          1.625,
          1.6349,
          1.645,
          1.6551,
          1.6653,
          1.6756,
          1.6861,
          1.6966,
          1.7072,
          1.7179,
          1.7287,
          1.7397,
          1.7507,
          1.7618,
          1.773,
          1.7844,
          1.7958,
          1.8074,
          1.8191,
          1.8309,
          1.8428,
          1.8548,
          1.8669,
          1.8792,
          1.8916,
          1.9041,
          1.9167,
          1.9295,
          1.9423,
          1.9554,
          1.9685,
          1.9818,
          1.9952,
          2.0087,
          2.0224,
          2.0362,
          2.0502,
          2.0643,
          2.0786,
          2.093,
          2.1075,
          2.1222,
          2.1371,
          2.1521,
          2.1673,
          2.1826,
          2.1981,
          2.2138,
          2.2296,
          2.2456,
          2.2618,
          2.2782,
          2.2947,
          2.3114,
          2.3283,
          2.3454,
          2.3627,
          2.3801,
          2.3978,
          2.4156,
          2.4337,
          2.452,
          2.4704,
          2.4891,
          2.508,
          2.5271,
          2.5464,
          2.566,
          2.5857,
          2.6057,
          2.626,
          2.6464,
          2.6671,
          2.6881,
          2.7093,
          2.7307,
          2.7524,
          2.7744,
          2.7966,
          2.8191,
          2.8419,
          2.865,
          2.8883,
          2.9119,
          2.9358,
          2.96,
          2.9845,
          3.0093,
          3.0345,
          3.0599,
          3.0857,
          3.1117,
          3.1382,
          3.1649,
          3.192,
          3.2195,
          3.2473,
          3.2754,
          3.304,
          3.3329,
          3.3621,
          3.3918,
          3.4219,
          3.4524,
          3.4832,
          3.5145,
          3.5463,
          3.5784,
          3.611,
          3.644,
          3.6775,
          3.7115,
          3.7459,
          3.7808,
          3.8162,
          3.8521,
          3.8886,
          3.9255,
          3.9629,
          4.0009,
          4.0395,
          4.0786,
          4.1183,
          4.1585,
          4.1994,
          4.2408,
          4.2829,
          4.3256,
          4.369,
          4.413,
          4.4576,
          4.503,
          4.549,
          4.5958,
          4.6433,
          4.6915,
          4.7405,
          4.7902,
          4.8407,
          4.8921,
          4.9442,
          4.9972,
          5.0511,
          5.1058,
          5.1614,
          5.218,
          5.2754,
          5.3338,
          5.3932,
          5.4536,
          5.5151,
          5.5775,
          5.6411,
          5.7057,
          5.7714,
          5.8383,
          5.9063,
          5.9756,
          6.0461,
          6.1178,
          6.1908,
          6.2651,
          6.3217,
          6.3599,
          6.3984,
          6.4373,
          6.4765,
          6.5161,
          6.556,
          6.5964,
          6.6371,
          6.6781,
          6.7196,
          6.7614,
          6.8037,
          6.8463,
          6.8893,
          6.9328,
          6.9766,
          7.0209,
          7.0656,
          7.1107,
          7.1563,
          7.2023,
          7.2487,
          7.2956,
          7.3429,
          7.3907,
          7.4229,
          7.439,
          7.4552,
          7.4715,
          7.4878,
          7.5041,
          7.5205,
          7.537,
          7.5535,
          7.5701,
          7.5867,
          7.6034,
          7.6201,
          7.6369,
          7.6538,
          7.6707,
          7.6876,
          7.7046,
          7.7217,
          7.7389,
          7.756,
          7.7733,
          7.7906,
          7.8079,
          7.8254,
          7.8428,
          7.8604,
          7.878,
          7.8956,
          7.9311,
          7.9848,
          8.039,
          8.0938,
          8.1491,
          8.2051,
          8.2615,
          8.3186,
          8.3763,
          8.4345,
          8.4934,
          8.5529,
          8.613,
          8.6738,
          8.7352,
          8.7973,
          8.86,
          8.9234,
          8.9875,
          9.0522,
          9.1177,
          9.1839,
          9.2508,
          9.3184,
          9.3868,
          9.456,
          9.5259,
          9.5966,
          9.668,
          9.7403,
          9.8134,
          9.8873,
          9.9621,
          10.038,
          10.114,
          10.192,
          10.27,
          10.349,
          10.429,
          10.51,
          10.592,
          10.675,
          10.759,
          10.844,
          10.929,
          11.016,
          11.104,
          11.193,
          11.283,
          11.375,
          11.467,
          11.56,
          11.655,
          11.751,
          11.847,
          11.946,
          12.045,
          12.146,
          12.247,
          12.35,
          12.455,
          12.561,
          12.668,
          12.776,
          12.886,
          12.998,
          13.11,
          13.225,
          13.34,
          13.458,
          13.576,
          13.697,
          13.819,
          13.942,
          14.068,
          14.195,
          14.323,
          14.454,
          14.586,
          14.72,
          14.856,
          14.994,
          15.134,
          15.276,
          15.42,
          15.565,
          15.713,
          15.863,
          16.015,
          16.17,
          16.326,
          16.485,
          16.579,
          16.606,
          16.633,
          16.66,
          16.687,
          16.714,
          16.741,
          16.769,
          16.796,
          16.824,
          16.851,
          16.879,
          16.906,
          16.934,
          16.962,
          16.99,
          17.018,
          17.046,
          17.074,
          17.102,
          17.13,
          17.159,
          17.187,
          17.215,
          17.244,
          17.272,
          17.373,
          17.548,
          17.725,
          17.904,
          18.087,
          18.272,
          18.46,
          18.652,
          18.846,
          19.043,
          19.243,
          19.447,
          19.653,
          19.863,
          20.077,
          20.293,
          20.514,
          20.738,
          20.965,
          21.197,
          21.432,
          21.671,
          21.915,
          22.162,
          22.414,
          22.669,
          22.93,
          23.195,
          23.464,
          23.738,
          24.017,
          24.301,
          24.59,
          24.884,
          25.175,
          25.361,
          25.514,
          25.669,
          25.825,
          25.983,
          26.142,
          26.302,
          26.464,
          26.628,
          26.793,
          26.959,
          27.127,
          27.297,
          27.468,
          27.641,
          27.816,
          27.992,
          28.17,
          28.35,
          28.531,
          28.714,
          28.899,
          29.086,
          29.274,
          29.464,
          29.656,
          29.85,
          30.046,
          30.244,
          30.444,
          30.646,
          30.85,
          31.056,
          31.264,
          31.474,
          31.686,
          31.9,
          32.117,
          32.335,
          32.556,
          32.779,
          33.005,
          33.233,
          33.463,
          33.696,
          33.931,
          34.168,
          34.308,
          34.348,
          34.388,
          34.428,
          34.469,
          34.509,
          34.549,
          34.59,
          34.63,
          34.671,
          34.712,
          34.753,
          34.793,
          34.834,
          34.875,
          34.916,
          34.958,
          34.999,
          35.04,
          35.081,
          35.123,
          35.164,
          35.206,
          35.248,
          35.289,
          35.331,
          35.373,
          35.415,
          35.457,
          35.499,
          35.541,
          35.584,
          35.626,
          35.668,
          35.817,
          36.075,
          36.336,
          36.599,
          36.865,
          37.134,
          37.406,
          37.555,
          37.577,
          37.6,
          37.623,
          37.646,
          37.669,
          37.692,
          37.716,
          37.739,
          37.762,
          37.785,
          37.808,
          37.831,
          37.854,
          37.878,
          37.901,
          37.924,
          37.947,
          37.971,
          37.994,
          38.017,
          38.041,
          38.064,
          38.087,
          38.111,
          38.134,
          38.158,
          38.181,
          38.205,
          38.228,
          38.252,
          38.276,
          38.299,
          38.323,
          38.346,
          38.37,
          38.394,
          38.417,
          38.441,
          38.465,
          38.489,
          38.513,
          38.536,
          38.56,
          38.584,
          38.608,
          38.632,
          38.788,
          39.078,
          39.372,
          39.669,
          39.969,
          40.273,
          40.581,
          40.891,
          41.206,
          41.524,
          41.846,
          42.171,
          42.5,
          42.834,
          43.171,
          43.512,
          43.857,
          44.206,
          44.56,
          44.887,
          45.083,
          45.264,
          45.447,
          45.631,
          45.815,
          46.001,
          46.188,
          46.377,
          46.566,
          46.757,
          46.948,
          47.141,
          47.335,
          47.531,
          47.727,
          47.925,
          48.124,
          48.324,
          48.525,
          48.728,
          48.932,
          49.137,
          49.344,
          49.552,
          49.761,
          49.971,
          50.183,
          50.396,
          50.611,
          50.827,
          51.044,
          51.263,
          51.483,
          51.704,
          51.927,
          52.152,
          52.377,
          52.605,
          52.834,
          53.064,
          53.296,
          53.529,
          53.764,
          54.0,
          54.238,
          54.478,
          54.719,
          54.962,
          55.206,
          55.452,
          55.7,
          55.949,
          56.2,
          56.453,
          56.707,
          56.963,
          57.221,
          57.481,
          57.742,
          58.005,
          58.27,
          58.537,
          58.806,
          59.076,
          59.349,
          59.623,
          59.899,
          60.177,
          60.457,
          60.739,
          61.023,
          61.309,
          61.597,
          61.887,
          62.179,
          62.473,
          62.769,
          63.068,
          63.23,
          63.255,
          63.28,
          63.305,
          63.33,
          63.356,
          63.381,
          63.406,
          63.431,
          63.456,
          63.481,
          63.507,
          63.532,
          63.557,
          63.582,
          63.608,
          63.633,
          63.658,
          63.683,
          63.709,
          63.734,
          63.759,
          63.785,
          63.81,
          63.836,
          63.861,
          63.886,
          63.912,
          63.937,
          63.963,
          63.988,
          64.014,
          64.039,
          64.065,
          64.09,
          64.116,
          64.142,
          64.167,
          64.193,
          64.218,
          64.244,
          64.27,
          64.295,
          64.321,
          64.347,
          64.372,
          64.398,
          64.424,
          64.45,
          64.476,
          64.501,
          64.527,
          64.553,
          64.579,
          64.605,
          64.631,
          64.656,
          64.682,
          64.708,
          64.812,
          64.994,
          65.178,
          65.361,
          65.546,
          65.731,
          65.918,
          66.105,
          66.293,
          66.4,
          66.427,
          66.454,
          66.481,
          66.508,
          66.535,
          66.562,
          66.589,
          66.616,
          66.643,
          66.671,
          66.698,
          66.725,
          66.752,
          66.779,
          66.806,
          66.834,
          66.861,
          66.888,
          66.915,
          66.943,
          66.97,
          66.997,
          67.024,
          67.052,
          67.079,
          67.107,
          67.134,
          67.161,
          67.189,
          67.216,
          67.244,
          67.271,
          67.299,
          67.326,
          67.354,
          67.533,
          67.866,
          68.201,
          68.539,
          68.88,
          69.223,
          69.568,
          69.917,
          70.267,
          70.621,
          70.977,
          71.336,
          71.697,
          72.061,
          72.428,
          72.798,
          73.171,
          73.547,
          73.925,
          74.307,
          74.691,
          75.078,
          75.469,
          75.862,
          76.259,
          76.658,
          77.061,
          77.467,
          77.876,
          78.289,
          78.704,
          79.123,
          79.546,
          79.972,
          80.401,
          80.833,
          81.27,
          81.709,
          82.153,
          82.6,
          83.05,
          83.504,
          83.962,
          84.424,
          84.695,
          84.773,
          84.851,
          84.929,
          85.007,
          85.085,
          85.163,
          85.241,
          85.32,
          85.398,
          85.477,
          85.556,
          85.635,
          85.714,
          85.793,
          85.872,
          85.951,
          86.031,
          86.11,
          86.19,
          86.27,
          86.35,
          86.43,
          86.51,
          86.59,
          86.67,
          86.751,
          86.831,
          86.912,
          86.993,
          87.277,
          87.766,
          88.26,
          88.757,
          89.259,
          89.765,
          90.276,
          90.791,
          91.31,
          91.834,
          92.362,
          92.895,
          93.433,
          93.975,
          94.522,
          95.074,
          95.63,
          96.192,
          96.758,
          97.33,
          97.906,
          98.488,
          99.075,
          99.667,
          100.26,
          100.87,
          101.48,
          102.09,
          102.71,
          103.33,
          103.96,
          104.6,
          105.24,
          105.89,
          106.55,
          107.21,
          107.87,
          108.55,
          109.23,
          109.91,
          110.6,
          111.3,
          112.01,
          112.72,
          113.44,
          114.16,
          114.9,
          115.64,
          116.38,
          117.14,
          117.9,
          118.67,
          119.44,
          120.23,
          121.02,
          121.82,
          122.63,
          125.11,
          130.14,
          135.47,
          139.07,
          140.75,
          141.71,
          142.73,
          143.75,
          144.79,
          145.84,
          146.89,
          147.96,
          149.05,
          150.14,
          151.25,
          152.36,
          153.49,
          154.64,
          155.79,
          156.96,
          158.14,
          159.34,
          160.55,
          161.77,
          163.01,
          164.26,
          165.53,
          166.81,
          168.1,
          169.41,
          170.74,
          172.08,
          173.44,
          174.81,
          176.2,
          177.61,
          179.03,
          180.22,
          180.95,
          181.68,
          182.42,
          183.16,
          183.9,
          184.65,
          185.4,
          186.16,
          186.92,
          187.68,
          188.45,
          189.23,
          190.01,
          190.8,
          191.59,
          192.38,
          193.18,
          193.99,
          194.8,
          195.61,
          196.43,
          197.26,
          198.09,
          198.92,
          199.76,
          200.61,
          201.46,
          202.32,
          203.18,
          204.05,
          204.92,
          205.8,
          206.69,
          207.58,
          208.48,
          209.38,
          210.29,
          211.2,
          212.12,
          213.05,
          213.98,
          214.92,
          215.87,
          216.82,
          217.77,
          218.74,
          219.71,
          220.68,
          221.67,
          222.66,
          223.65,
          224.66,
          225.67,
          226.68,
          227.71,
          228.74,
          229.77,
          230.82,
          231.87,
          232.93,
          234.0,
          235.07,
          236.15,
          237.24,
          238.33,
          239.44,
          240.55,
          241.67,
          242.79,
          243.93,
          245.07,
          246.22,
          247.38,
          248.55,
          249.72,
          250.91,
          252.1,
          253.3,
          254.51,
          255.73,
          256.95,
          258.19,
          259.43,
          260.69,
          261.95,
          263.22,
          264.5,
          265.79,
          267.09,
          268.4,
          269.72,
          271.05,
          272.39,
          273.74,
          275.1,
          276.47,
          277.84,
          279.23,
          280.63,
          282.04,
          283.46,
          284.9,
          286.34,
          287.79,
          289.26,
          290.73,
          292.22,
          293.72,
          295.23,
          296.75,
          298.29,
          299.83,
          301.39,
          302.96,
          304.54,
          306.14,
          307.74,
          309.36,
          311.0,
          312.64,
          314.3,
          315.97,
          317.66,
          319.36,
          321.07,
          322.8,
          324.54,
          326.29,
          328.06,
          329.84,
          331.64,
          333.45,
          335.28,
          337.12,
          338.98,
          340.85,
          342.74,
          344.65,
          346.57,
          348.5,
          350.46,
          352.42,
          354.41,
          356.41,
          358.43,
          360.47,
          362.52,
          364.6,
          366.69,
          368.79,
          370.92,
          373.06,
          375.23,
          377.41,
          379.61,
          381.83,
          384.07,
          386.33,
          388.61,
          390.91,
          393.23,
          395.57,
          397.93,
          400.31,
          402.72,
          405.15,
          407.59,
          410.06,
          412.56,
          415.07,
          417.61,
          420.17,
          422.76,
          425.37,
          428.01,
          430.66,
          433.35,
          436.06,
          438.79,
          441.55,
          444.34,
          447.15,
          449.99,
          452.86,
          455.75,
          458.67,
          461.62,
          464.6,
          467.61,
          470.64,
          473.71,
          476.81,
          479.94,
          483.09,
          486.28,
          489.5,
          492.76,
          496.04,
          499.36,
          502.71,
          506.1,
          509.52,
          512.97,
          516.46,
          519.99,
          523.55,
          527.15,
          530.79,
          534.46,
          538.17,
          541.92,
          545.71,
          549.54,
          553.41,
          557.33,
          561.28,
          565.28,
          569.31,
          573.4,
          577.52,
          581.69,
          585.91,
          590.17,
          594.48,
          598.83,
          603.24,
          607.69,
          612.19,
          616.75,
          621.35,
          626.0,
          630.71,
          635.47,
          640.29,
          645.16,
          650.08,
          655.07,
          660.11,
          665.2,
          670.36,
          675.58,
          680.86,
          686.2,
          691.6,
          697.07,
          702.6,
          708.2,
          713.87,
          719.61,
          724.4,
          727.36,
          730.3,
          733.26,
          736.23,
          739.23,
          742.24,
          745.27,
          748.32,
          751.39,
          754.48,
          757.58,
          760.71,
          763.85,
          767.02,
          770.2,
          773.41,
          776.63,
          779.88,
          783.14,
          786.43,
          789.73,
          793.06,
          796.41,
          799.78,
          803.17,
          806.58,
          810.01,
          813.47,
          816.95,
          820.45,
          823.97,
          827.52,
          831.09,
          834.68,
          838.3,
          841.93,
          845.6,
          849.28,
          852.99,
          856.73,
          860.49,
          864.27,
          868.08,
          871.92,
          875.78,
          879.66,
          883.58,
          887.51,
          891.48,
          895.47,
          899.49,
          903.53,
          907.6,
          911.7,
          915.83,
          919.99,
          924.17,
          928.39,
          932.63,
          936.9,
          941.2,
          945.53,
          949.89,
          954.28,
          958.7,
          963.15,
          967.63,
          972.15,
          976.69,
          981.27,
          985.88,
          990.52,
          995.2,
          999.91,
          1004.6,
          1009.4,
          1014.2,
          1019.1,
          1024.0,
          1028.9,
          1033.8,
          1038.8,
          1043.8,
          1048.9,
          1054.0,
          1059.1,
          1064.3,
          1069.5,
          1074.7,
          1080.0,
          1085.3,
          1090.7,
          1096.1,
          1101.6,
          1107.0,
          1112.6,
          1118.1,
          1123.7,
          1129.4,
          1135.1,
          1140.8,
          1146.6,
          1152.4,
          1158.3,
          1164.2,
          1170.2,
          1176.2,
          1182.2,
          1188.3,
          1194.5,
          1200.7,
          1206.9,
          1213.2,
          1219.5,
          1225.9,
          1232.4,
          1238.8,
          1245.4,
          1252.0,
          1258.6,
          1265.3,
          1272.1,
          1278.9,
          1285.7,
          1292.7,
          1299.6,
          1306.7,
          1313.8,
          1320.9,
          1328.1,
          1335.4,
          1342.7,
          1350.1,
          1357.5,
          1365.0,
          1372.6,
          1380.2,
          1387.9,
          1395.7,
          1403.5,
          1411.4,
          1419.3,
          1427.4,
          1435.5,
          1443.6,
          1451.9,
          1460.2,
          1468.5,
          1477.0,
          1485.5,
          1494.1,
          1502.8,
          1511.5,
          1520.3,
          1529.2,
          1538.2,
          1547.3,
          1556.4,
          1565.6,
          1574.9,
          1584.3,
          1593.8,
          1603.3,
          1612.9,
          1622.7,
          1632.5,
          1642.4,
          1652.4,
          1662.5,
          1672.6,
          1682.9,
          1693.3,
          1703.7,
          1714.3,
          1724.9,
          1735.7,
          1746.6,
          1757.5,
          1768.6,
          1779.7,
          1791.0,
          1802.4,
          1813.9,
          1825.5,
          1837.2,
          1849.0,
          1861.0,
          1873.0,
          1885.2,
          1897.5,
          1909.9,
          1922.4,
          1935.1,
          1947.9,
          1960.8,
          1973.8,
          1987.0,
          2000.3,
          2013.7,
          2027.3,
          2041.0,
          2054.9,
          2068.9,
          2083.0,
          2097.3,
          2111.7,
          2126.3,
          2141.0,
          2155.9,
          2170.9,
          2186.1,
          2201.5,
          2217.0,
          2232.7,
          2248.5,
          2264.5,
          2280.7,
          2297.1,
          2313.6,
          2330.4,
          2347.3,
          2364.3,
          2381.6,
          2399.1,
          2416.7,
          2434.6,
          2452.6,
          2470.9,
          2489.4,
          2508.0,
          2526.9,
          2546.0,
          2565.3,
          2584.8,
          2604.6,
          2624.6,
          2644.8,
          2665.2,
          2685.9,
          2706.8,
          2728.0,
          2749.4,
          2771.1,
          2793.0,
          2815.2,
          2837.6,
          2860.4,
          2883.4,
          2906.6,
          2926.1,
          2938.1,
          2950.0,
          2962.1,
          2974.1,
          2986.3,
          2998.5,
          3010.8,
          3023.2,
          3035.7,
          3048.2,
          3060.8,
          3073.5,
          3086.3,
          3099.1,
          3112.1,
          3125.1,
          3138.2,
          3151.4,
          3164.6,
          3178.0,
          3191.4,
          3204.9,
          3218.5,
          3232.2,
          3246.0,
          3259.8,
          3273.8,
          3287.8,
          3302.0,
          3316.2,
          3330.5,
          3344.9,
          3359.4,
          3374.0,
          3388.7,
          3403.5,
          3418.4,
          3433.3,
          3448.4,
          3463.6,
          3478.9,
          3494.3,
          3509.8,
          3525.3,
          3541.0,
          3556.8,
          3572.7,
          3588.7,
          3604.9,
          3621.1,
          3637.4,
          3653.9,
          3670.4,
          3687.1,
          3703.9,
          3720.8,
          3737.8,
          3754.9,
          3772.2,
          3789.6,
          3807.1,
          3824.7,
          3842.4,
          3860.3,
          3878.2,
          3896.4,
          3914.6,
          3933.0,
          3951.5,
          3970.1,
          3988.8,
          4007.7,
          4026.8,
          4045.9,
          4065.2,
          4084.6,
          4104.2,
          4123.9,
          4143.8,
          4163.8,
          4184.0,
          4204.2,
          4224.7,
          4245.3,
          4266.0,
          4286.9,
          4308.0,
          4329.2,
          4350.5,
          4372.1,
          4393.7,
          4415.6,
          4437.6,
          4459.8,
          4482.1,
          4504.6,
          4527.3,
          4550.1,
          4573.1,
          4596.3,
          4619.7,
          4643.3,
          4667.0,
          4690.9,
          4715.0,
          4739.3,
          4763.8,
          4788.4,
          4813.3,
          4838.3,
          4863.6,
          4889.0,
          4914.7,
          4940.5,
          4966.6,
          4992.8,
          5019.3,
          5046.0,
          5072.9,
          5100.0,
          5127.3,
          5154.8,
          5182.6,
          5210.6,
          5238.8,
          5267.2,
          5295.9,
          5324.8,
          5354.0,
          5383.4,
          5413.0,
          5442.9,
          5473.0,
          5503.4,
          5534.0,
          5564.9,
          5596.1,
          5627.5,
          5659.2,
          5691.1,
          5723.3,
          5755.8,
          5788.6,
          5821.6,
          5855.0,
          5888.6,
          5922.5,
          5956.7,
          5991.2,
          6026.0,
          6061.1,
          6096.5,
          6132.2,
          6168.3,
          6204.6,
          6241.3,
          6278.3,
          6315.7,
          6353.3,
          6391.3,
          6429.7,
          6468.4,
          6507.4,
          6546.8,
          6586.6,
          6626.7,
          6667.2,
          6708.1,
          6749.3,
          6790.9,
          6833.0,
          6875.4,
          6918.2,
          6961.4,
          7005.0,
          7049.0,
          7093.4,
          7138.2,
          7183.5,
          7229.2,
          7275.4,
          7322.0,
          7369.0,
          7416.5,
          7464.5,
          7512.9,
          7561.8,
          7611.2,
          7661.0,
          7711.4,
          7762.2,
          7813.6,
          7865.4,
          7917.8,
          7970.7,
          8024.2,
          8078.1,
          8132.7,
          8187.7,
          8243.4,
          8299.6,
          8356.4,
          8413.7,
          8471.7,
          8530.3,
          8589.5,
          8649.2,
          8709.7,
          8770.7,
          8832.4,
          8894.8,
          8957.8,
          9021.5,
          9085.8,
          9150.9,
          9216.7,
          9283.1,
          9350.3,
          9418.3,
          9486.9,
          9556.3,
          9626.5,
          9697.5,
          9769.2,
          9841.8,
          9915.2,
          9989.3,
          10064.0,
          10140.0,
          10217.0,
          10295.0,
          10373.0,
          10452.0,
          10533.0,
          10614.0,
          10696.0,
          10779.0,
          10863.0,
          10949.0,
          11035.0,
          11122.0,
          11210.0,
          11299.0,
          11389.0,
          11481.0,
          11573.0,
          11667.0,
          11762.0,
          11857.0,
          11955.0,
          12053.0,
          12152.0,
          12253.0,
          12355.0,
          12458.0,
          12563.0,
          12669.0,
          12776.0,
          12884.0,
          12994.0,
          13106.0,
          13219.0,
          13333.0,
          13449.0,
          13566.0,
          13685.0,
          13805.0,
          13927.0,
          14051.0,
          14176.0,
          14303.0,
          14432.0,
          14562.0,
          14695.0,
          14829.0,
          14964.0,
          15102.0,
          15242.0,
          15383.0,
          15527.0,
          15672.0,
          15820.0,
          15970.0,
          16122.0,
          16276.0,
          16432.0,
          16591.0,
          16751.0,
          16915.0,
          17080.0,
          17248.0,
          17419.0,
          17592.0,
          17767.0,
          17946.0,
          18127.0,
          18310.0,
          18497.0,
          18686.0,
          18879.0,
          19074.0,
          19272.0,
          19474.0,
          19679.0,
          19886.0,
          20098.0,
          20312.0,
          20530.0,
          20752.0,
          20977.0,
          21206.0,
          21439.0,
          21675.0,
          21916.0,
          22160.0,
          22409.0,
          22661.0,
          22918.0,
          23180.0,
          23446.0,
          23716.0,
          23992.0,
          24272.0,
          24557.0,
          24847.0,
          25142.0,
          25443.0,
          25749.0,
          26060.0,
          26377.0,
          26700.0,
          27029.0,
          27343.0,
          27534.0,
          27706.0,
          27879.0,
          28054.0,
          28230.0,
          28408.0,
          28588.0,
          28769.0,
          28952.0,
          29137.0,
          29324.0,
          29513.0,
          29703.0,
          29895.0,
          30089.0,
          30285.0,
          30483.0,
          30683.0,
          30885.0,
          31088.0,
          31294.0,
          31502.0,
          31712.0,
          31924.0,
          32138.0,
          32355.0,
          32573.0,
          32794.0,
          33017.0,
          33242.0,
          33470.0,
          33700.0,
          33932.0,
          34167.0
        ],
        [
          171.08,
          -718.61,
          221.07,
          -216.52,
          554.89,
          132.61,
          876.46,
          297.1,
          422.45,
          -716.28,
          449.34,
          -825.91,
          -196.36,
          19.518,
          281.12,
          652.64,
          1081.4,
          -80.781,
          985.55,
          1072.6,
          58.159,
          879.56,
          211.42,
          369.13,
          351.87,
          847.7,
          2003.6,
          -334.96,
          1581.4,
          287.66,
          -732.32,
          454.7,
          1216.5,
          2135.1,
          -135.26,
          1509.9,
          1326.0,
          1753.9,
          -944.0,
          1064.4,
          2780.1,
          1724.6,
          3855.1,
          2019.9,
          4528.2,
          4584.8,
          3721.6,
          4724.1,
          5333.6,
          6671.8,
          8705.2,
          8702.0,
          10627.0,
          10705.0,
          9370.0,
          12288.0,
          12329.0,
          10530.0,
          9898.5,
          10585.0,
          9896.7,
          8259.1,
          7324.7,
          7984.5,
          5566.6,
          3945.2,
          4136.3,
          3658.4,
          1008.0,
          2698.1,
          1951.7,
          986.92,
          1023.3,
          1078.5,
          2625.0,
          1696.6,
          1433.8,
          1447.3,
          1106.5,
          1601.9,
          1458.0,
          1923.3,
          304.99,
          1294.0,
          519.92,
          -510.87,
          468.01,
          376.43,
          100.2,
          835.52,
          -217.88,
          171.01,
          -29.696,
          -33.152,
          564.67,
          939.53,
          588.87,
          932.25,
          898.02,
          415.09,
          446.49,
          75.292,
          728.26,
          354.16,
          242.31,
          18.876,
          792.76,
          611.63,
          -166.59,
          363.63,
          354.67,
          487.12,
          17.184,
          -263.47,
          302.79,
          131.09,
          575.0,
          53.564,
          227.86,
          197.57,
          26.798,
          828.08,
          7.718,
          -71.142,
          -13.758,
          -323.31,
          -199.42,
          -79.269,
          -33.175,
          533.85,
          -278.29,
          -8.3468,
          -247.85,
          -387.4,
          136.02,
          -60.113,
          475.81,
          -27.776,
          120.05,
          81.52,
          154.23,
          -112.42,
          82.398,
          61.673,
          625.67,
          -207.33,
          -357.34,
          -43.149,
          -212.15,
          285.68,
          -307.3,
          335.43,
          -116.27,
          -327.91,
          -255.34,
          100.08,
          -304.85,
          251.74,
          -212.49,
          326.51,
          445.31,
          142.77,
          -306.97,
          388.17,
          388.18,
          -392.54,
          -45.226,
          190.86,
          438.6,
          -245.52,
          471.84,
          113.78,
          173.47,
          30.649,
          266.86,
          -671.61,
          267.93,
          -453.6,
          696.61,
          -27.266,
          7.1384,
          213.42,
          79.349,
          -0.86998,
          275.68,
          17.396,
          482.89,
          442.82,
          201.62,
          57.116,
          -313.12,
          -6.5041,
          185.49,
          -123.19,
          155.61,
          201.28,
          -134.99,
          46.368,
          -237.84,
          54.046,
          -148.2,
          515.01,
          -87.864,
          234.76,
          11.164,
          -59.15,
          76.354,
          -246.21,
          -78.372,
          -19.001,
          -113.4,
          175.94,
          40.284,
          281.02,
          -205.39,
          22.693,
          -37.361,
          318.82,
          297.69,
          166.69,
          132.4,
          160.28,
          -33.03,
          126.85,
          -145.62,
          -21.655,
          78.231,
          121.44,
          -19.414,
          314.15,
          -15.628,
          9.2013,
          -240.83,
          191.68,
          351.58,
          233.7,
          357.52,
          21.386,
          184.2,
          263.61,
          171.65,
          109.81,
          -12.129,
          218.39,
          361.8,
          -251.54,
          93.215,
          -164.38,
          90.887,
          265.15,
          -86.89,
          -62.469,
          129.37,
          -429.38,
          396.23,
          152.28,
          219.92,
          47.698,
          384.76,
          -34.149,
          122.2,
          192.07,
          85.467,
          159.66,
          18.308,
          -31.971,
          15.767,
          -24.939,
          -64.986,
          17.001,
          -29.75,
          2.1675,
          -19.61,
          -47.083,
          0.17802,
          -131.47,
          -127.17,
          307.21,
          276.0,
          -82.207,
          -61.931,
          32.122,
          73.33,
          204.77,
          220.05,
          -153.87,
          98.855,
          430.07,
          -256.55,
          31.773,
          358.37,
          -80.27,
          123.15,
          195.07,
          -24.13,
          397.57,
          54.487,
          -380.7,
          378.04,
          220.26,
          161.52,
          210.4,
          307.79,
          458.72,
          694.46,
          1144.2,
          1059.2,
          450.12,
          953.16,
          1598.1,
          903.65,
          2117.8,
          2530.1,
          4020.9,
          5937.5,
          9229.7,
          13042.0,
          18263.0,
          21434.0,
          23207.0,
          24015.0,
          22898.0,
          17714.0,
          14044.0,
          10796.0,
          7706.6,
          5069.5,
          4054.9,
          2920.3,
          1627.3,
          2028.1,
          923.24,
          832.87,
          976.75,
          785.97,
          471.12,
          208.88,
          539.95,
          289.33,
          21.426,
          190.53,
          -169.51,
          -241.98,
          -213.38,
          70.912,
          -229.27,
          -186.34,
          -16.428,
          331.34,
          214.42,
          -52.973,
          -203.76,
          209.58,
          166.43,
          4.46,
          -75.802,
          146.17,
          -130.1,
          253.15,
          -146.3,
          148.62,
          304.47,
          -450.11,
          -21.842,
          -17.975,
          13.778,
          174.18,
          241.71,
          -279.69,
          25.324,
          15.622,
          -143.62,
          38.176,
          21.339,
          114.07,
          -88.346,
          5.0401,
          137.73,
          230.64,
          -119.22,
          -95.873,
          218.18,
          151.92,
          126.52,
          -214.75,
          61.753,
          75.124,
          -236.36,
          276.68,
          -60.675,
          120.42,
          -159.3,
          39.518,
          -240.18,
          248.13,
          341.76,
          -101.22,
          140.28,
          16.84,
          -61.826,
          109.03,
          286.77,
          -96.546,
          -46.145,
          105.32,
          57.515,
          85.861,
          -34.143,
          311.39,
          277.64,
          -216.89,
          67.601,
          -91.413,
          106.11,
          -6.7691,
          -127.43,
          -29.305,
          89.425,
          189.59,
          217.09,
          154.89,
          -116.86,
          -98.792,
          146.24,
          130.13,
          244.83,
          -144.45,
          177.01,
          859.82,
          339.11,
          494.63,
          1325.1,
          1482.6,
          2262.6,
          2183.1,
          1395.2,
          1893.4,
          1336.1,
          926.86,
          1099.2,
          456.9,
          106.7,
          571.88,
          664.81,
          136.61,
          584.02,
          572.88,
          369.69,
          -643.65,
          406.14,
          -257.6,
          290.75,
          222.26,
          -197.93,
          4.4747,
          33.951,
          82.838,
          -57.432,
          39.455,
          156.87,
          82.011,
          -9.0363,
          219.13,
          78.602,
          142.73,
          146.42,
          -245.09,
          160.82,
          212.31,
          27.662,
          85.382,
          -59.21,
          -68.089,
          41.507,
          11.66,
          19.153,
          244.59,
          37.308,
          382.44,
          39.339,
          131.21,
          60.27,
          -45.676,
          11.075,
          63.946,
          -10.667,
          -232.76,
          296.16,
          57.724,
          -43.214,
          -277.86,
          102.33,
          401.06,
          138.25,
          6.5694,
          179.0,
          17.552,
          121.95,
          -39.804,
          -361.51,
          -159.28,
          322.84,
          201.89,
          177.14,
          -6.8992,
          -151.07,
          134.94,
          -98.617,
          -76.392,
          -209.86,
          -112.44,
          -365.28,
          7.3826,
          154.53,
          -35.667,
          -55.232,
          -77.884,
          249.59,
          -259.99,
          11.124,
          -77.557,
          125.33,
          -108.96,
          -206.12,
          126.5,
          102.42,
          -4.5018,
          89.514,
          -81.573,
          3.2279,
          -170.82,
          49.743,
          218.76,
          69.348,
          541.68,
          293.84,
          -177.28,
          550.06,
          43.125,
          -37.557,
          -30.43,
          -26.516,
          223.7,
          391.65,
          779.11,
          856.24,
          1051.5,
          316.74,
          180.3,
          1343.7,
          1146.8,
          1034.4,
          792.63,
          1516.6,
          495.46,
          629.76,
          605.94,
          68.454,
          -128.52,
          -426.98,
          763.17,
          435.99,
          193.88,
          29.396,
          525.87,
          -88.967,
          264.89,
          544.11,
          138.2,
          -206.12,
          250.56,
          61.728,
          148.83,
          -28.546,
          57.868,
          -499.69,
          -950.46,
          380.56,
          731.71,
          242.72,
          24.067,
          687.17,
          -425.95,
          -702.57,
          -105.7,
          -318.81,
          -553.05,
          -1413.1,
          -213.55,
          28.344,
          318.27,
          1027.7,
          -518.77,
          198.34,
          599.87,
          141.78,
          293.4,
          809.78,
          594.39,
          691.77,
          1082.2,
          10.415,
          629.19,
          -4.9841,
          168.38,
          639.47,
          706.35,
          1247.7,
          1242.5,
          1703.5,
          326.16,
          898.85,
          -32.289,
          -172.88,
          -412.46,
          14.89,
          -334.38,
          916.79,
          -1322.3,
          -864.87,
          -1076.8,
          -319.0,
          -115.87,
          -74.532,
          323.21,
          -174.53,
          -67.773,
          -31.139,
          -49.217,
          51.696,
          -12.814,
          317.13,
          343.15,
          393.56,
          169.77,
          121.4,
          143.57,
          -56.836,
          -372.53,
          -162.86,
          12.072,
          -51.271,
          -59.038,
          70.567,
          -205.48,
          -152.13,
          -101.94,
          209.21,
          -169.95,
          -146.63,
          -55.197,
          -25.529,
          -178.62,
          7.5049,
          -323.6,
          278.93,
          -278.57,
          260.49,
          425.1,
          169.48,
          -452.32,
          202.35,
          -300.89,
          285.12,
          -267.93,
          -39.982,
          406.09,
          -369.59,
          22.372,
          -154.75,
          336.38,
          -328.77,
          109.51,
          -76.269,
          -31.695,
          294.7,
          55.598,
          90.765,
          -318.09,
          -215.37,
          388.11,
          -240.31,
          -147.75,
          168.75,
          1.3513,
          -215.03,
          -110.66,
          -43.256,
          264.01,
          294.63,
          34.252,
          195.47,
          -158.15,
          -25.53,
          77.563,
          65.148,
          -157.63,
          -52.197,
          313.38,
          48.45,
          35.207,
          -57.59,
          -86.253,
          377.78,
          70.143,
          -50.044,
          80.529,
          134.56,
          70.645,
          181.54,
          -124.4,
          29.666,
          341.15,
          -239.54,
          211.98,
          303.96,
          34.118,
          35.459,
          -101.36,
          -91.104,
          106.73,
          -235.56,
          -280.37,
          -603.43,
          -990.0,
          -24.316,
          -1015.9,
          796.36,
          -565.4,
          685.63,
          1535.6,
          491.12,
          -167.86,
          249.63,
          1058.0,
          796.45,
          -268.82,
          -629.11,
          -668.14,
          689.3,
          1286.7,
          -382.8,
          -765.48,
          -302.15,
          66.539,
          51.186,
          -658.84,
          21.02,
          279.21,
          -1366.1,
          139.22,
          430.74,
          -1031.4,
          281.0,
          -435.74,
          -214.61,
          -507.39,
          -1012.0,
          -523.89,
          128.83,
          -396.98,
          234.96,
          1681.3,
          750.95,
          1604.4,
          -1561.5,
          -405.53,
          -534.03,
          513.39,
          -472.48,
          383.49,
          -163.83,
          -459.35,
          -785.17,
          -1016.5,
          -459.25,
          608.72,
          -76.128,
          -931.71,
          -116.75,
          6.4917,
          -282.56,
          22.573,
          294.41,
          302.57,
          124.44,
          -45.742,
          349.44,
          116.47,
          -136.91,
          24.813,
          -97.779,
          141.69,
          -278.36,
          -388.53,
          426.53,
          1273.9,
          1573.8,
          2254.6,
          676.87,
          1879.4,
          289.25,
          598.96,
          750.6,
          839.1,
          -164.9,
          564.07,
          -723.76,
          980.24,
          -1107.6,
          -538.39,
          1389.0,
          -1454.2,
          -313.15,
          -389.77,
          334.73,
          736.6,
          -708.16,
          -106.65,
          129.06,
          -280.6,
          -567.49,
          -305.72,
          -812.91,
          50.308,
          -391.72,
          133.09,
          -1.1499,
          258.73,
          327.45,
          -350.02,
          -133.07,
          101.84,
          81.073,
          179.73,
          136.32,
          267.43,
          290.19,
          147.92,
          166.45,
          -340.69,
          220.55,
          20.246,
          -65.918,
          -51.159,
          -228.31,
          166.2,
          66.022,
          6.6914,
          8.3077,
          182.14,
          230.79,
          104.87,
          311.69,
          65.881,
          -52.294,
          -77.273,
          -224.03,
          187.83,
          74.655,
          143.22,
          -122.75,
          139.17,
          -128.94,
          172.23,
          -55.943,
          258.52,
          -77.438,
          50.093,
          693.71,
          -5.2786,
          283.18,
          592.19,
          174.49,
          517.99,
          296.7,
          -56.271,
          594.15,
          462.18,
          248.93,
          510.98,
          719.5,
          1418.1,
          446.84,
          1772.7,
          2101.8,
          2507.2,
          2825.0,
          887.73,
          1461.2,
          724.07,
          663.49,
          -775.57,
          -206.45,
          -590.6,
          322.67,
          -3.091,
          -205.3,
          -254.5,
          -70.907,
          42.201,
          -399.8,
          129.16,
          -275.42,
          121.05,
          462.37,
          6.3092,
          155.94,
          219.18,
          -219.81,
          351.5,
          92.126,
          160.65,
          -65.6,
          185.21,
          512.34,
          317.59,
          -14.5,
          139.57,
          71.28,
          -102.04,
          170.24,
          -309.78,
          -114.46,
          -134.21,
          -52.459,
          -272.35,
          383.85,
          106.54,
          419.5,
          425.61,
          30.164,
          62.522,
          -216.49,
          -104.77,
          -22.736,
          163.8,
          157.37,
          -168.17,
          208.79,
          205.81,
          467.56,
          116.05,
          369.15,
          56.718,
          -359.63,
          78.414,
          33.731,
          -325.56,
          -506.24,
          183.78,
          -8.7518,
          -346.46,
          655.87,
          -29.804,
          1723.6,
          10422.0,
          -2405.8,
          -814.64,
          415.27,
          651.26,
          173.46,
          502.38,
          519.83,
          217.07,
          -171.88,
          -217.64,
          456.81,
          40.87,
          -26.143,
          54.588,
          -232.55,
          -128.5,
          -15.909,
          183.17,
          150.03,
          328.54,
          -85.59,
          -22.581,
          -90.152,
          -100.84,
          97.676,
          -95.954,
          -82.971,
          -128.23,
          11.925,
          -39.709,
          -29.654,
          147.07,
          150.47,
          -220.9,
          -217.02,
          551.37,
          -184.44,
          44.484,
          142.09,
          -59.657,
          143.5,
          28.907,
          413.84,
          -84.692,
          -156.75,
          60.485,
          -90.721,
          404.61,
          -123.03,
          -203.28,
          35.769,
          -79.511,
          53.3,
          17.176,
          -145.03,
          -235.25,
          241.91,
          597.7,
          -110.09,
          -104.94,
          -38.323,
          -139.12,
          39.672,
          -461.72,
          302.77,
          -54.347,
          -246.49,
          -7.0033,
          -99.62,
          66.056,
          45.748,
          734.35,
          467.44,
          335.3,
          220.59,
          -18.755,
          204.56,
          -349.11,
          -44.819,
          171.04,
          43.681,
          -308.45,
          301.42,
          323.5,
          405.82,
          399.34,
          -201.65,
          160.88,
          203.42,
          -29.796,
          34.72,
          -170.26,
          178.78,
          -24.323,
          213.09,
          -144.06,
          -91.098,
          19.756,
          -39.82,
          -300.61,
          221.97,
          -175.68,
          -54.926,
          -40.891,
          -321.02,
          264.56,
          -52.402,
          -272.53,
          271.71,
          325.4,
          -82.319,
          203.34,
          396.55,
          215.7,
          94.366,
          171.58,
          -57.662,
          -154.33,
          323.96,
          -220.39,
          148.14,
          -0.61794,
          -282.28,
          -9.991,
          -485.89,
          -51.368,
          -93.946,
          -6.6755,
          -200.72,
          -67.52,
          254.05,
          294.75,
          200.57,
          -129.57,
          -119.3,
          -274.58,
          -86.706,
          189.2,
          -24.097,
          100.32,
          -15.888,
          -43.035,
          -625.0,
          -204.69,
          590.93,
          28.672,
          -41.988,
          167.69,
          -23.493,
          129.88,
          145.21,
          -257.34,
          -85.187,
          -448.74,
          95.366,
          27.323,
          82.785,
          112.15,
          -72.307,
          19.129,
          134.46,
          -295.21,
          -6.5745,
          84.028,
          118.94,
          -49.331,
          -219.61,
          25.264,
          330.47,
          99.039,
          -16.823,
          -4.9673,
          307.4,
          542.55,
          475.24,
          -245.43,
          27.399,
          552.8,
          383.46,
          -46.333,
          -261.95,
          398.09,
          104.87,
          -85.413,
          10.987,
          218.22,
          -448.68,
          274.51,
          196.85,
          -92.43,
          -31.394,
          -338.2,
          -0.81281,
          364.04,
          -303.81,
          89.382,
          -344.41,
          56.891,
          -30.308,
          -249.82,
          149.59,
          -303.97,
          286.68,
          226.55,
          -158.95,
          136.58,
          100.75,
          405.4,
          73.604,
          -152.08,
          -15.677,
          -194.16,
          -54.213,
          -99.848,
          -246.25,
          -178.75,
          99.799,
          -120.47,
          -40.093,
          -96.561,
          453.0,
          162.5,
          72.107,
          -190.57,
          -7.1923,
          328.75,
          -451.08,
          -56.138,
          -58.917,
          198.59,
          186.71,
          -200.65,
          230.28,
          70.541,
          -341.02,
          -100.0,
          -281.11,
          24.069,
          -15.234,
          58.523,
          -186.8,
          255.12,
          -57.507,
          47.665,
          -4.6671,
          125.19,
          160.72,
          -111.79,
          -142.86,
          146.95,
          -156.5,
          -187.61,
          51.442,
          -86.463,
          229.58,
          -89.756,
          253.71,
          90.883,
          -240.6,
          -181.38,
          -165.22,
          18.35,
          -134.18,
          112.76,
          206.23,
          -256.26,
          61.394,
          96.025,
          -273.81,
          -66.303,
          -6.6798,
          181.51,
          94.373,
          -338.19,
          3.22,
          42.38,
          174.59,
          -170.16,
          -13.72,
          -144.38,
          177.11,
          -61.96,
          181.52,
          -67.457,
          -136.77,
          -11.726,
          180.09,
          8.093,
          -238.06,
          -111.71,
          286.87,
          320.58,
          -101.49,
          -29.929,
          115.86,
          220.18,
          171.62,
          83.207,
          -182.85,
          10.736,
          41.798,
          37.346,
          -78.368,
          104.5,
          293.18,
          -121.97,
          -196.5,
          255.41,
          232.11,
          229.42,
          -241.15,
          106.93,
          446.7,
          99.962,
          124.71,
          242.69,
          610.61,
          228.03,
          -170.16,
          182.43,
          84.358,
          -191.75,
          43.37,
          435.19,
          170.94,
          -424.63,
          -23.069,
          -489.72,
          117.9,
          -36.234,
          68.672,
          107.17,
          -249.81,
          -68.58,
          -428.1,
          282.76,
          -23.03,
          569.91,
          18.052,
          -17.117,
          -132.75,
          -156.74,
          -357.27,
          72.594,
          -180.42,
          -291.94,
          5.7851,
          -28.109,
          -43.51,
          -210.65,
          575.12,
          96.205,
          -410.92,
          191.42,
          -42.754,
          153.39,
          -23.408,
          -76.943,
          -109.19,
          304.57,
          -148.86,
          -57.146,
          75.762,
          -94.282,
          -88.518,
          -176.34,
          -38.275,
          -167.74,
          -322.54,
          -349.99,
          73.428,
          183.38,
          -184.16,
          -153.93,
          17.834,
          -269.54,
          -86.388,
          -82.679,
          327.78,
          115.27,
          509.62,
          305.94,
          -71.49,
          -181.52,
          -50.064,
          -336.44,
          236.03,
          157.1,
          201.36,
          -51.648,
          -164.51,
          242.82,
          -153.35,
          -23.136,
          -298.15,
          156.29,
          -274.73,
          -55.386,
          -100.41,
          -62.254,
          24.81,
          -104.0,
          -229.23,
          11.788,
          202.35,
          -59.863,
          94.917,
          261.73,
          -323.39,
          -499.84,
          -230.42,
          337.18,
          124.9,
          -20.665,
          -184.84,
          2.393,
          196.91,
          337.61,
          182.69,
          -3.2869,
          -104.59,
          187.6,
          340.69,
          -138.46,
          94.568,
          134.35,
          137.68,
          -157.44,
          414.13,
          150.56,
          244.87,
          171.45,
          -138.94,
          -211.83,
          -264.14,
          -58.01,
          210.83,
          -128.95,
          -149.21,
          71.37,
          -382.78,
          189.01,
          8.9883,
          -87.707,
          173.26,
          167.33,
          386.09,
          20.098,
          350.53,
          -282.64,
          17.638,
          -36.29,
          230.59,
          64.536,
          -92.968,
          63.962,
          -195.19,
          176.96,
          340.26,
          66.016,
          -294.83,
          -45.455,
          14.548,
          -183.44,
          -165.7,
          107.39,
          -212.39,
          85.105,
          -104.5,
          259.0,
          60.829,
          -72.499,
          -362.79,
          409.26,
          -149.07,
          185.78,
          30.389,
          -87.954,
          -245.07,
          139.17,
          38.053,
          313.46,
          379.66,
          119.96,
          147.22,
          141.86,
          -157.88,
          -174.91,
          198.66,
          -147.85,
          -183.34,
          96.735,
          245.94,
          213.8,
          379.6,
          -216.88,
          -95.066,
          57.42,
          -128.81,
          144.13,
          60.971,
          235.28,
          295.34,
          -147.65,
          -8.1728,
          38.071,
          153.02,
          244.76,
          88.279,
          145.32,
          -72.762,
          -17.501,
          222.18,
          -152.95,
          -22.495,
          212.33,
          -78.213,
          -0.11797,
          -143.52,
          -111.26,
          84.18,
          308.63,
          -186.51,
          91.585,
          -13.416,
          97.285,
          510.92,
          -147.13,
          -49.453,
          53.393,
          -7.8972,
          -83.736,
          57.975,
          -24.111,
          114.22,
          -174.85,
          106.83,
          211.48,
          -53.347,
          231.51,
          246.14,
          180.63,
          171.91,
          246.29,
          -2.1027,
          -108.43,
          91.489,
          -46.367,
          -307.48,
          -206.84,
          -271.59,
          358.08,
          5.6491,
          15.963,
          -124.21,
          145.47,
          54.823,
          -358.05,
          197.89,
          71.22,
          353.11,
          365.94,
          -5.8654,
          160.98,
          -280.71,
          309.76,
          224.38,
          -578.7,
          123.46,
          37.529,
          -89.737,
          376.57,
          242.76,
          83.04,
          470.47,
          188.11,
          55.071,
          82.886,
          -68.022,
          79.731,
          1.5821,
          244.5,
          -309.58,
          -281.18,
          275.28,
          420.53,
          7.9491,
          -97.947,
          349.82,
          99.931,
          -349.36,
          180.74,
          68.846,
          -8.4861,
          -558.77,
          -41.862,
          349.74,
          -92.483,
          -319.35,
          -157.36,
          -133.3,
          -258.78,
          -228.56,
          505.89,
          -627.62,
          -375.88,
          -13.968,
          27.27,
          362.3,
          40.377,
          285.76,
          37.221,
          -658.11,
          -168.55,
          441.19,
          -233.51,
          259.69,
          454.6,
          -180.57,
          256.48,
          267.72,
          513.2,
          48.216,
          56.92,
          -40.8,
          134.88,
          -155.23,
          121.23,
          -474.95,
          -243.5,
          -41.866,
          166.94,
          322.69,
          329.84,
          -7.3206,
          -156.61,
          19.103,
          -370.19,
          47.834,
          -164.66,
          130.77,
          -171.81,
          95.869,
          311.14,
          369.98,
          -327.57,
          269.58,
          -435.52,
          -310.88,
          7.2763,
          -81.419,
          -39.405,
          498.57,
          692.93,
          162.67,
          -119.79,
          216.13,
          -82.516,
          -33.841,
          -387.51,
          -120.64,
          172.11,
          -335.86,
          -274.22,
          -494.77,
          97.743,
          175.41,
          -466.2,
          100.81,
          389.67,
          112.77,
          492.63,
          353.39,
          6.7583,
          112.73,
          271.2,
          101.45,
          76.728,
          -36.872,
          60.167,
          94.818,
          781.47,
          509.31,
          -225.15,
          231.7,
          149.01,
          -281.68,
          257.66,
          44.441,
          82.379,
          -175.33,
          0.01064,
          96.462,
          -46.699,
          166.36,
          106.13,
          32.53,
          175.02,
          231.06,
          128.81,
          -158.96,
          -36.772,
          -88.773,
          79.148,
          198.29,
          -330.36,
          -412.14,
          -104.14,
          -439.93,
          -476.78,
          79.663,
          -216.61,
          684.14,
          53.349,
          257.81,
          54.021,
          369.17,
          114.35,
          -131.29,
          -550.14,
          -356.41,
          -227.87,
          375.6,
          183.21,
          -302.92,
          353.88,
          37.697,
          183.09,
          -350.43,
          -25.172,
          355.69,
          -54.33,
          138.41,
          60.03,
          -318.06,
          -692.66,
          -86.678,
          -104.12,
          -3.3916,
          -101.01,
          163.93,
          -181.68,
          -615.52,
          -17.309,
          -136.57,
          -64.649,
          460.45,
          60.565,
          -17.063,
          279.49,
          116.4,
          120.83,
          135.21,
          -17.366,
          -300.01,
          187.88,
          383.97,
          106.3,
          -184.44,
          68.435,
          16.047,
          112.59,
          44.93,
          275.72,
          -318.57,
          149.6,
          -220.0,
          88.382,
          -163.98,
          -523.93,
          107.75,
          20.221,
          13.397,
          -85.37,
          15.197,
          113.08,
          -112.69,
          -158.8,
          173.63,
          -115.36,
          -438.65,
          62.055,
          90.038,
          -39.969,
          276.06,
          -43.717,
          -60.717,
          -303.73,
          141.72,
          -46.784,
          39.918,
          389.1,
          224.44,
          316.86,
          197.22,
          -181.78,
          -30.475,
          152.65,
          8.8457,
          304.87,
          -93.771,
          -65.106,
          82.139,
          237.8,
          361.07,
          25.712,
          436.1,
          195.55,
          55.65,
          -35.533,
          -345.89,
          0.19065,
          287.03,
          -229.96,
          119.57,
          -71.812,
          -92.137,
          214.75,
          92.894,
          -243.29,
          204.37,
          12.98,
          -96.821,
          92.918,
          203.78,
          135.7,
          224.29,
          316.9,
          -20.807,
          -197.76,
          152.6,
          205.3,
          -444.96,
          18.346,
          -30.117,
          4.0811,
          -29.913,
          69.569,
          -214.11,
          -17.076,
          87.857,
          -34.093,
          348.62,
          -38.679,
          -14.913,
          129.98,
          229.48,
          63.337,
          8.5287,
          -29.718,
          -92.798,
          78.223,
          225.65,
          -23.8,
          -86.007,
          344.53,
          97.123,
          227.05,
          -71.789,
          295.32,
          -259.31,
          94.051,
          451.69,
          26.192,
          -513.01,
          -5.7738,
          132.83,
          45.244,
          64.711,
          -598.36,
          -441.52,
          -202.26,
          -211.03,
          376.84,
          214.93,
          -560.96,
          -54.003,
          -14.46,
          366.9,
          -282.54,
          132.46,
          756.59,
          75.616,
          38.15,
          240.27,
          144.29,
          94.869,
          44.276,
          -43.693,
          382.07,
          -27.199,
          486.29,
          56.865,
          115.58,
          253.3,
          -348.85,
          -13.517,
          -173.41,
          -74.829,
          -405.31,
          485.24,
          73.325,
          -68.164
        ],
        [
          561.36,
          584.89,
          558.62,
          581.3,
          518.6,
          564.34,
          509.0,
          460.09,
          513.12,
          492.44,
          466.84,
          489.38,
          503.4,
          414.7,
          441.23,
          408.49,
          407.76,
          418.18,
          404.0,
          389.44,
          433.76,
          400.41,
          406.55,
          392.59,
          375.46,
          379.55,
          867.11,
          632.82,
          623.35,
          777.08,
          849.14,
          680.82,
          889.7,
          615.44,
          674.94,
          605.18,
          628.28,
          582.94,
          731.35,
          638.51,
          554.83,
          737.0,
          553.54,
          722.73,
          697.35,
          596.64,
          665.11,
          683.81,
          611.21,
          680.99,
          606.29,
          631.24,
          649.94,
          620.55,
          762.3,
          674.81,
          663.94,
          653.51,
          674.44,
          645.67,
          596.77,
          581.7,
          627.65,
          524.75,
          575.59,
          622.49,
          589.51,
          560.96,
          615.89,
          587.03,
          630.13,
          659.8,
          572.12,
          589.26,
          518.36,
          520.1,
          516.62,
          537.39,
          531.75,
          498.72,
          504.4,
          490.45,
          549.93,
          503.78,
          514.97,
          344.03,
          303.85,
          325.21,
          311.39,
          287.39,
          313.45,
          313.58,
          284.56,
          297.01,
          273.4,
          269.14,
          272.19,
          271.3,
          277.19,
          270.27,
          272.36,
          271.34,
          259.76,
          261.95,
          274.99,
          265.03,
          244.86,
          247.58,
          272.2,
          250.85,
          246.93,
          236.2,
          349.2,
          360.41,
          342.32,
          352.53,
          336.11,
          358.95,
          342.41,
          358.74,
          358.71,
          318.05,
          351.61,
          351.63,
          333.7,
          351.63,
          355.1,
          329.34,
          328.03,
          315.97,
          334.75,
          318.03,
          327.93,
          342.5,
          337.64,
          311.77,
          312.74,
          346.82,
          299.26,
          309.85,
          315.36,
          308.24,
          290.07,
          302.8,
          289.06,
          309.99,
          322.93,
          298.17,
          310.17,
          296.18,
          312.14,
          285.31,
          291.41,
          371.53,
          292.12,
          289.13,
          283.9,
          280.38,
          318.21,
          271.33,
          293.58,
          271.47,
          298.0,
          263.4,
          265.99,
          280.82,
          267.19,
          270.09,
          268.84,
          268.18,
          253.88,
          275.42,
          264.93,
          258.31,
          259.35,
          264.07,
          256.27,
          262.12,
          249.5,
          252.4,
          256.37,
          251.01,
          248.04,
          246.82,
          244.68,
          238.14,
          235.64,
          233.07,
          236.19,
          236.94,
          239.78,
          245.01,
          242.94,
          237.22,
          232.54,
          229.07,
          233.68,
          228.07,
          233.93,
          222.99,
          227.99,
          220.8,
          225.2,
          222.7,
          225.93,
          219.15,
          216.41,
          214.86,
          222.64,
          220.43,
          216.07,
          209.66,
          208.15,
          208.15,
          210.58,
          206.31,
          205.76,
          201.33,
          199.97,
          202.12,
          206.09,
          200.1,
          201.21,
          196.21,
          202.11,
          198.18,
          198.47,
          194.55,
          195.84,
          190.82,
          191.54,
          190.91,
          193.39,
          187.32,
          185.33,
          185.31,
          179.55,
          185.33,
          182.46,
          182.4,
          181.41,
          178.91,
          181.1,
          177.86,
          173.11,
          181.37,
          175.38,
          177.72,
          174.78,
          170.91,
          175.43,
          173.8,
          168.65,
          173.69,
          164.01,
          164.86,
          163.72,
          164.78,
          160.7,
          164.36,
          160.54,
          161.98,
          160.86,
          159.22,
          160.53,
          160.06,
          158.56,
          156.47,
          157.75,
          155.85,
          153.36,
          152.87,
          153.31,
          150.07,
          150.31,
          149.45,
          150.06,
          144.94,
          146.1,
          211.27,
          210.89,
          207.41,
          202.55,
          206.22,
          200.4,
          209.38,
          204.0,
          198.35,
          208.51,
          201.13,
          198.62,
          204.91,
          198.52,
          200.35,
          199.23,
          197.31,
          198.97,
          204.02,
          196.65,
          194.25,
          195.09,
          196.85,
          193.9,
          193.01,
          192.59,
          323.31,
          323.14,
          352.88,
          332.57,
          323.87,
          349.24,
          332.53,
          336.29,
          350.01,
          347.05,
          348.31,
          384.17,
          427.39,
          483.9,
          537.02,
          542.01,
          515.77,
          446.73,
          387.69,
          356.43,
          335.28,
          344.23,
          325.29,
          320.53,
          337.54,
          315.33,
          330.1,
          328.47,
          325.89,
          185.66,
          185.02,
          188.93,
          185.06,
          185.23,
          189.7,
          183.0,
          187.06,
          186.14,
          186.21,
          179.88,
          185.28,
          182.31,
          178.36,
          176.6,
          177.55,
          181.34,
          179.52,
          176.28,
          173.72,
          177.3,
          181.09,
          173.08,
          175.64,
          168.68,
          172.16,
          173.86,
          173.98,
          176.33,
          170.26,
          169.93,
          168.92,
          166.15,
          167.15,
          171.4,
          165.82,
          167.76,
          167.29,
          166.33,
          163.66,
          162.78,
          162.44,
          162.81,
          160.76,
          159.6,
          166.82,
          161.45,
          157.79,
          161.03,
          157.77,
          163.26,
          158.24,
          157.33,
          161.01,
          155.09,
          156.8,
          154.37,
          157.6,
          154.59,
          159.88,
          150.63,
          151.36,
          153.7,
          150.03,
          152.63,
          152.58,
          150.69,
          147.17,
          149.98,
          149.04,
          148.41,
          148.04,
          148.73,
          148.68,
          146.32,
          144.14,
          147.17,
          144.12,
          144.95,
          143.04,
          144.15,
          144.28,
          141.74,
          139.75,
          139.43,
          139.22,
          139.9,
          140.09,
          141.4,
          137.52,
          136.38,
          136.6,
          337.7,
          337.8,
          324.88,
          338.15,
          337.74,
          331.56,
          346.04,
          331.74,
          335.28,
          350.48,
          334.69,
          329.11,
          329.27,
          320.55,
          326.87,
          346.36,
          322.66,
          317.39,
          327.4,
          323.11,
          321.02,
          322.43,
          341.76,
          326.44,
          342.41,
          327.27,
          132.8,
          137.45,
          133.82,
          132.73,
          131.95,
          133.94,
          131.92,
          130.55,
          131.11,
          130.84,
          129.49,
          129.87,
          128.48,
          127.46,
          130.58,
          127.93,
          127.37,
          127.24,
          125.4,
          127.16,
          126.49,
          125.49,
          124.49,
          123.91,
          122.0,
          124.08,
          122.45,
          121.62,
          120.22,
          120.67,
          121.92,
          120.0,
          119.43,
          119.27,
          134.74,
          165.93,
          167.14,
          169.98,
          169.55,
          165.15,
          163.37,
          165.57,
          164.39,
          163.64,
          165.04,
          166.98,
          164.49,
          169.81,
          166.69,
          160.95,
          162.02,
          161.27,
          162.45,
          166.63,
          160.41,
          163.35,
          163.33,
          162.23,
          163.59,
          165.78,
          160.9,
          157.97,
          159.46,
          159.1,
          159.88,
          156.32,
          162.95,
          158.13,
          159.21,
          155.92,
          157.85,
          159.11,
          154.58,
          156.58,
          157.06,
          154.88,
          157.46,
          155.56,
          154.38,
          154.4,
          152.26,
          152.32,
          359.44,
          365.06,
          372.49,
          361.31,
          372.2,
          370.69,
          371.31,
          372.61,
          367.8,
          361.77,
          353.02,
          361.39,
          354.44,
          383.32,
          382.29,
          371.32,
          377.69,
          383.49,
          385.61,
          368.5,
          379.79,
          366.4,
          361.62,
          373.28,
          374.11,
          377.24,
          349.64,
          364.54,
          366.25,
          369.52,
          360.0,
          371.09,
          365.97,
          358.6,
          150.94,
          152.59,
          148.83,
          153.79,
          149.42,
          149.82,
          148.81,
          514.92,
          537.69,
          505.66,
          489.79,
          498.85,
          500.46,
          485.75,
          524.73,
          531.68,
          517.02,
          513.02,
          538.61,
          550.59,
          512.11,
          507.03,
          499.05,
          478.09,
          518.45,
          491.53,
          491.49,
          511.83,
          496.9,
          484.14,
          489.48,
          490.72,
          481.04,
          516.16,
          497.74,
          513.8,
          515.38,
          500.94,
          501.12,
          488.21,
          485.28,
          473.56,
          516.97,
          507.06,
          520.85,
          521.72,
          527.33,
          508.17,
          522.56,
          480.64,
          549.43,
          532.7,
          538.85,
          515.42,
          149.36,
          147.15,
          145.92,
          148.91,
          148.26,
          145.98,
          147.41,
          144.75,
          144.3,
          142.9,
          142.68,
          142.02,
          143.88,
          143.02,
          142.48,
          143.03,
          145.37,
          143.71,
          141.42,
          178.13,
          203.65,
          201.25,
          204.95,
          203.04,
          202.43,
          195.58,
          203.37,
          200.83,
          205.99,
          202.4,
          201.88,
          197.29,
          202.58,
          195.36,
          201.75,
          196.36,
          193.14,
          197.65,
          202.88,
          194.61,
          208.45,
          192.14,
          202.04,
          197.26,
          191.2,
          203.27,
          196.12,
          197.13,
          192.78,
          202.76,
          197.07,
          197.85,
          193.66,
          189.99,
          192.71,
          198.49,
          198.0,
          195.73,
          191.69,
          203.1,
          195.43,
          194.61,
          195.57,
          198.28,
          197.56,
          191.75,
          187.19,
          192.52,
          189.53,
          191.2,
          192.34,
          191.99,
          190.0,
          189.76,
          193.56,
          190.03,
          184.45,
          191.88,
          188.15,
          194.73,
          189.54,
          183.28,
          189.05,
          191.0,
          187.17,
          186.31,
          184.62,
          186.58,
          191.8,
          186.95,
          186.52,
          187.82,
          185.18,
          182.66,
          185.09,
          187.77,
          185.66,
          187.87,
          623.65,
          637.68,
          635.34,
          657.62,
          677.02,
          621.2,
          656.48,
          602.21,
          657.74,
          613.31,
          580.13,
          608.84,
          646.99,
          622.03,
          597.55,
          600.38,
          639.85,
          652.73,
          640.98,
          605.64,
          589.45,
          635.08,
          652.36,
          646.61,
          636.39,
          623.51,
          659.97,
          629.75,
          616.06,
          673.38,
          627.97,
          612.55,
          663.94,
          628.4,
          650.92,
          644.57,
          650.72,
          682.43,
          653.05,
          625.84,
          635.05,
          624.07,
          582.29,
          603.97,
          577.12,
          707.04,
          639.48,
          645.96,
          620.81,
          641.55,
          622.46,
          637.95,
          653.25,
          669.76,
          664.0,
          653.26,
          603.54,
          619.06,
          664.24,
          240.97,
          237.38,
          248.85,
          242.67,
          239.95,
          237.7,
          239.11,
          243.67,
          234.6,
          630.15,
          631.55,
          654.82,
          652.06,
          648.08,
          649.16,
          646.5,
          622.7,
          605.74,
          597.56,
          571.47,
          634.06,
          586.41,
          628.56,
          617.16,
          607.86,
          593.41,
          635.87,
          599.8,
          645.59,
          585.18,
          671.65,
          641.52,
          578.14,
          692.69,
          639.9,
          635.23,
          612.41,
          604.05,
          638.81,
          627.42,
          615.77,
          629.05,
          628.25,
          639.94,
          652.44,
          183.19,
          187.73,
          183.07,
          183.27,
          178.5,
          177.15,
          189.41,
          184.33,
          181.63,
          179.49,
          179.39,
          179.13,
          177.55,
          178.0,
          178.54,
          181.05,
          183.0,
          176.64,
          180.09,
          182.17,
          183.73,
          182.48,
          176.68,
          177.28,
          180.91,
          177.63,
          177.4,
          175.36,
          177.18,
          173.07,
          176.76,
          178.34,
          177.83,
          180.79,
          176.29,
          178.69,
          176.11,
          179.34,
          175.09,
          180.28,
          175.86,
          177.27,
          174.34,
          175.7,
          425.86,
          411.67,
          454.14,
          425.43,
          417.14,
          436.0,
          426.49,
          425.29,
          433.01,
          413.66,
          427.93,
          422.19,
          436.74,
          427.35,
          413.23,
          483.62,
          428.21,
          423.24,
          442.58,
          405.68,
          434.94,
          420.75,
          434.66,
          419.97,
          450.2,
          430.69,
          442.53,
          417.81,
          429.08,
          428.78,
          181.84,
          177.99,
          177.43,
          180.11,
          175.29,
          180.19,
          175.59,
          173.08,
          175.04,
          175.24,
          174.71,
          180.42,
          172.75,
          178.58,
          178.43,
          180.05,
          175.25,
          179.32,
          176.02,
          179.6,
          177.21,
          180.82,
          181.98,
          179.05,
          183.93,
          183.39,
          184.23,
          184.01,
          190.23,
          182.76,
          185.3,
          182.72,
          184.43,
          190.6,
          191.57,
          199.9,
          196.72,
          195.96,
          198.7,
          205.42,
          211.23,
          212.76,
          212.65,
          223.96,
          234.14,
          228.27,
          246.4,
          263.95,
          277.16,
          285.93,
          320.95,
          362.87,
          386.37,
          458.26,
          588.94,
          675.4,
          2365.6,
          3297.7,
          4533.2,
          3127.0,
          2709000.0,
          1109.5,
          539.66,
          452.9,
          420.28,
          330.59,
          306.3,
          280.82,
          262.04,
          232.08,
          229.55,
          218.69,
          212.48,
          207.67,
          197.35,
          197.76,
          187.24,
          181.69,
          177.92,
          179.4,
          175.36,
          176.0,
          173.8,
          167.13,
          167.16,
          166.85,
          163.69,
          161.74,
          161.73,
          158.68,
          155.48,
          155.7,
          159.07,
          157.22,
          206.45,
          222.36,
          224.73,
          218.22,
          224.23,
          212.95,
          216.62,
          211.97,
          220.18,
          217.82,
          215.83,
          215.76,
          214.51,
          218.32,
          218.21,
          210.44,
          212.2,
          210.97,
          210.38,
          211.9,
          221.94,
          212.62,
          206.6,
          211.57,
          210.57,
          204.67,
          211.02,
          207.16,
          221.38,
          203.81,
          209.95,
          210.74,
          203.84,
          205.51,
          206.61,
          205.17,
          201.73,
          203.22,
          199.59,
          200.97,
          203.56,
          199.91,
          206.51,
          201.44,
          199.3,
          199.65,
          203.43,
          201.77,
          197.91,
          201.93,
          199.88,
          204.38,
          198.55,
          198.07,
          197.12,
          197.65,
          198.09,
          198.72,
          201.04,
          195.86,
          204.45,
          200.39,
          199.9,
          196.13,
          200.25,
          192.24,
          200.23,
          200.64,
          195.63,
          198.59,
          192.1,
          194.61,
          199.62,
          194.53,
          190.03,
          193.26,
          193.29,
          188.24,
          191.62,
          194.22,
          194.6,
          192.06,
          197.2,
          185.15,
          196.45,
          194.96,
          192.25,
          198.91,
          191.71,
          197.19,
          190.04,
          188.61,
          189.41,
          194.51,
          189.27,
          186.27,
          186.52,
          187.73,
          193.43,
          190.64,
          193.57,
          189.1,
          184.43,
          190.01,
          187.25,
          187.08,
          186.02,
          194.41,
          189.38,
          178.54,
          188.29,
          185.94,
          184.97,
          187.05,
          189.05,
          182.83,
          191.23,
          185.59,
          193.44,
          181.9,
          186.31,
          183.34,
          183.34,
          185.66,
          182.87,
          181.76,
          187.91,
          183.33,
          181.98,
          183.57,
          191.51,
          188.99,
          187.95,
          181.8,
          186.33,
          189.14,
          186.34,
          184.91,
          179.7,
          177.25,
          188.03,
          181.52,
          181.79,
          180.08,
          180.3,
          187.68,
          174.47,
          178.5,
          180.0,
          175.93,
          177.24,
          181.67,
          176.38,
          172.73,
          176.74,
          177.07,
          180.56,
          177.24,
          173.94,
          179.85,
          177.92,
          186.28,
          180.12,
          175.63,
          179.59,
          173.97,
          178.83,
          171.32,
          172.74,
          176.15,
          173.94,
          171.49,
          174.46,
          172.04,
          173.44,
          174.27,
          174.48,
          174.27,
          172.43,
          173.22,
          172.86,
          170.98,
          173.58,
          171.66,
          170.79,
          164.87,
          169.97,
          169.43,
          172.09,
          169.6,
          167.63,
          176.88,
          172.12,
          169.47,
          168.82,
          166.83,
          172.15,
          168.08,
          167.93,
          169.99,
          171.17,
          169.22,
          167.93,
          167.78,
          168.51,
          170.1,
          164.0,
          165.36,
          164.6,
          165.13,
          164.52,
          164.05,
          167.08,
          167.88,
          162.44,
          165.65,
          165.97,
          162.11,
          164.56,
          160.91,
          166.84,
          161.28,
          162.48,
          163.69,
          163.9,
          162.38,
          160.56,
          162.62,
          160.6,
          158.41,
          165.35,
          159.27,
          162.22,
          162.68,
          160.9,
          161.9,
          161.65,
          159.57,
          162.42,
          158.35,
          160.74,
          157.33,
          160.35,
          158.24,
          161.18,
          155.63,
          158.6,
          155.41,
          157.67,
          159.2,
          220.16,
          218.42,
          222.58,
          225.88,
          226.66,
          217.38,
          216.42,
          223.91,
          225.65,
          221.17,
          217.79,
          219.37,
          221.88,
          230.09,
          222.03,
          218.6,
          220.62,
          229.49,
          225.2,
          217.04,
          225.04,
          227.49,
          215.59,
          219.01,
          217.19,
          229.03,
          218.71,
          221.83,
          220.32,
          221.69,
          217.49,
          218.54,
          220.37,
          217.43,
          219.16,
          217.19,
          222.3,
          218.96,
          211.84,
          214.61,
          226.18,
          220.69,
          225.65,
          218.78,
          224.18,
          214.29,
          218.48,
          218.18,
          217.9,
          227.36,
          212.32,
          216.62,
          210.81,
          219.49,
          216.15,
          216.6,
          215.88,
          222.33,
          219.74,
          219.21,
          217.18,
          214.07,
          213.16,
          216.08,
          212.85,
          212.63,
          211.7,
          224.24,
          212.23,
          215.45,
          213.47,
          210.97,
          215.12,
          215.39,
          208.5,
          216.6,
          211.55,
          211.25,
          213.6,
          213.55,
          220.55,
          213.06,
          215.2,
          212.78,
          219.0,
          210.3,
          213.19,
          214.6,
          214.23,
          208.04,
          215.59,
          215.01,
          210.76,
          206.66,
          210.48,
          209.28,
          204.23,
          213.9,
          208.32,
          207.28,
          208.88,
          206.65,
          209.46,
          204.42,
          213.82,
          211.66,
          205.71,
          206.23,
          203.78,
          220.16,
          202.63,
          207.85,
          205.18,
          209.1,
          202.54,
          205.25,
          203.58,
          204.02,
          205.37,
          205.53,
          202.54,
          197.62,
          197.07,
          203.93,
          205.88,
          203.4,
          196.99,
          200.52,
          202.0,
          205.68,
          202.25,
          200.47,
          197.54,
          201.98,
          200.03,
          208.35,
          200.53,
          199.89,
          205.08,
          205.14,
          204.87,
          200.5,
          200.35,
          197.97,
          202.33,
          197.81,
          199.01,
          198.6,
          201.87,
          205.82,
          199.87,
          196.89,
          198.47,
          197.22,
          198.06,
          204.06,
          197.31,
          195.37,
          196.36,
          198.23,
          194.4,
          191.4,
          197.0,
          191.09,
          202.75,
          194.96,
          195.43,
          193.38,
          197.11,
          194.99,
          194.41,
          199.39,
          196.97,
          189.93,
          190.89,
          197.36,
          198.51,
          199.68,
          194.52,
          194.57,
          191.57,
          195.37,
          195.25,
          197.85,
          193.76,
          193.09,
          194.17,
          199.23,
          188.0,
          198.23,
          189.0,
          190.6,
          192.32,
          194.37,
          188.43,
          189.71,
          185.92,
          188.4,
          187.68,
          191.08,
          189.56,
          191.49,
          188.92,
          186.24,
          194.68,
          192.79,
          188.08,
          185.27,
          187.22,
          186.98,
          191.1,
          190.88,
          186.01,
          190.42,
          186.69,
          188.41,
          189.03,
          184.94,
          191.82,
          190.25,
          186.83,
          186.45,
          184.12,
          185.3,
          185.54,
          189.0,
          186.07,
          183.94,
          190.02,
          191.59,
          183.94,
          186.8,
          187.69,
          184.4,
          184.48,
          185.26,
          180.2,
          184.4,
          179.12,
          183.02,
          182.08,
          175.14,
          182.52,
          178.96,
          178.82,
          178.95,
          179.67,
          180.19,
          177.1,
          178.45,
          247.44,
          254.12,
          253.2,
          258.59,
          265.68,
          250.41,
          250.67,
          251.14,
          253.03,
          255.55,
          263.39,
          264.08,
          260.05,
          262.84,
          259.62,
          254.47,
          247.33,
          262.88,
          253.86,
          255.29,
          253.18,
          255.77,
          265.8,
          254.91,
          252.71,
          249.44,
          254.75,
          257.62,
          253.62,
          264.83,
          256.94,
          260.83,
          265.52,
          264.84,
          252.69,
          254.33,
          244.85,
          254.54,
          250.7,
          248.57,
          250.15,
          250.89,
          253.27,
          250.49,
          254.82,
          259.37,
          249.06,
          257.54,
          256.42,
          249.22,
          246.39,
          248.86,
          260.0,
          247.66,
          253.88,
          264.06,
          247.32,
          252.1,
          265.21,
          258.09,
          252.36,
          242.43,
          252.52,
          255.16,
          254.25,
          251.34,
          259.73,
          257.94,
          248.59,
          272.05,
          264.39,
          251.38,
          257.98,
          257.24,
          255.06,
          247.58,
          260.81,
          268.68,
          271.68,
          262.07,
          271.01,
          274.98,
          268.91,
          296.46,
          308.5,
          342.6,
          386.06,
          426.31,
          467.25,
          411.21,
          363.19,
          338.31,
          306.46,
          321.7,
          293.5,
          287.56,
          289.43,
          277.3,
          285.1,
          289.53,
          290.42,
          291.9,
          304.06,
          298.34,
          302.54,
          299.84,
          307.22,
          308.63,
          315.3,
          318.98,
          343.54,
          347.63,
          368.32,
          372.08,
          359.54,
          345.13,
          371.4,
          347.88,
          345.73,
          367.83,
          364.74,
          334.59,
          371.38,
          329.25,
          353.4,
          320.86,
          313.1,
          333.93,
          304.37,
          316.03,
          290.36,
          280.11,
          285.17,
          274.93,
          275.37,
          263.85,
          262.59,
          259.28,
          260.74,
          256.42,
          257.24,
          252.65,
          254.89,
          259.65,
          258.41,
          282.03,
          454.04,
          355.85,
          270.66,
          254.6,
          243.28,
          252.77,
          242.7,
          246.1,
          266.23,
          248.52,
          248.38,
          237.2,
          241.04,
          234.12,
          238.59,
          242.1,
          234.94,
          234.9,
          236.72,
          243.12,
          249.82,
          239.54,
          239.15,
          230.62,
          238.26,
          251.55,
          240.7,
          237.83,
          243.75,
          228.77,
          233.13,
          223.21,
          234.19,
          224.57,
          232.38,
          227.97,
          230.85,
          228.52,
          234.98,
          232.97,
          229.71,
          218.61,
          226.96,
          232.37,
          222.49,
          225.65,
          225.41,
          227.02,
          223.26,
          221.38,
          238.33,
          255.89,
          231.2,
          233.09,
          238.48,
          226.41,
          235.18,
          224.0,
          223.12,
          221.74,
          224.64,
          228.94,
          220.27,
          231.84,
          225.0,
          217.81,
          219.83,
          216.04,
          213.45,
          221.75,
          218.97,
          213.64,
          220.44,
          221.34,
          210.39,
          212.34,
          210.95,
          219.64,
          216.94,
          216.86,
          215.78,
          214.55,
          216.41,
          224.43,
          215.92,
          220.79,
          217.23,
          215.09,
          226.85,
          217.91,
          239.82,
          225.34,
          217.85,
          214.1,
          215.5,
          215.42,
          215.43,
          215.5,
          212.45,
          221.03,
          208.84,
          209.64,
          216.71,
          207.58,
          212.34,
          210.52,
          217.81,
          214.68,
          212.35,
          208.24,
          206.91,
          205.25,
          208.1,
          206.24,
          207.1,
          209.38,
          208.74,
          211.56,
          203.36,
          213.45,
          206.55,
          207.88,
          203.67,
          199.79,
          204.69,
          201.5,
          199.84,
          202.39,
          204.76,
          207.06,
          202.33,
          197.61,
          209.89,
          201.63,
          204.82,
          219.67,
          203.69,
          203.87,
          202.63,
          199.07,
          198.45,
          206.94,
          207.14,
          216.33,
          214.49,
          197.83,
          196.56,
          195.06,
          202.55,
          192.79,
          194.31,
          198.9,
          196.81,
          198.93,
          195.81,
          194.05,
          193.74,
          197.08,
          200.5,
          197.4,
          190.38,
          184.25,
          189.16,
          190.45,
          185.16,
          185.9,
          188.25,
          194.81,
          206.41,
          199.57,
          200.56,
          201.54,
          189.34,
          187.75,
          179.31,
          184.69,
          180.18,
          188.07,
          186.08,
          186.3,
          191.92,
          181.03,
          181.46,
          184.52,
          177.72,
          173.63,
          175.95,
          233.0,
          276.39,
          259.1,
          251.04,
          258.85,
          240.38,
          239.84,
          265.13,
          242.52,
          242.39,
          233.2,
          247.07,
          239.35,
          227.97,
          243.7,
          254.14,
          294.55,
          276.51,
          233.59,
          236.31,
          226.45,
          223.3,
          236.6,
          220.22,
          231.75,
          230.6,
          234.4,
          248.2,
          251.63,
          268.36,
          294.61,
          287.04,
          289.43,
          334.23,
          394.01
        ]
      ]
    }
  }
}