{
  "entry": "10679",
  "last_updated": "2006-07-20",
  "number_of_revisions": "4",
  "histories": [
    {
      "x4_code": "(19771104C)",
      "free_txt": []
    },
    {
      "x4_code": "(20050524A)",
      "free_txt": [
        " DR Units of uncertainties corrected and",
        "             format updated"
      ]
    }
  ],
  "bib_record": {
    "title": "Fission cross section of 243-Cm.",
    "authors": [
      {
        "name": "M.G.Silbert"
      }
    ],
    "institutes": [
      {
        "x4_code": "(1USALAS)",
        "free_txt": []
      }
    ],
    "references": [
      {
        "x4_code": "(R,LA-6239-MS,1976)",
        "free_txt": [],
        "publication_year": "1976",
        "doi": null,
        "pointer": "0"
      }
    ],
    "facilities": []
  },
  "reactions": {
    "002": {
      "0": {
        "x4_code": "(96-CM-243(N,F),,SIG)",
        "children": [
          {
            "code": [
              "96-CM-243",
              [
                "N,F"
              ],
              ",,SIG"
            ],
            "type": null,
            "target": "96-CM-243",
            "process": "N,F",
            "sf49": ",,SIG",
            "sf4": null,
            "sf5": null,
            "sf6": "SIG",
            "sf7": null,
            "sf8": null,
            "sf9": null
          }
        ],
        "type": null,
        "free_text": "",
        "pointer": "0"
      }
    }
  },
  "data_tables": {
    "001": {
      "common": null
    },
    "002": {
      "common": null,
      "data": {
        "heads": [
          "EN",
          "DATA",
          "DATA-ERR"
        ],
        "units": [
          "EV",
          "B",
          "PER-CENT"
        ],
        "data": [
          [
            14.697,
            14.718,
            14.76,
            14.781,
            14.803,
            14.824,
            14.845,
            14.888,
            14.909,
            14.93,
            14.952,
            14.995,
            15.016,
            15.037,
            15.059,
            15.08,
            15.123,
            15.145,
            15.166,
            15.188,
            15.209,
            15.252,
            15.274,
            15.296,
            15.317,
            15.339,
            15.382,
            15.404,
            15.425,
            15.447,
            15.49,
            15.512,
            15.534,
            15.556,
            15.578,
            15.621,
            15.643,
            15.665,
            15.687,
            15.731,
            15.752,
            15.774,
            15.796,
            15.818,
            15.862,
            15.884,
            15.906,
            15.928,
            15.95,
            15.995,
            16.017,
            16.039,
            16.061,
            16.083,
            16.127,
            16.15,
            16.172,
            16.194,
            16.239,
            16.261,
            16.283,
            16.305,
            16.328,
            16.35,
            16.395,
            16.417,
            16.439,
            16.484,
            16.507,
            16.529,
            16.552,
            16.574,
            16.619,
            16.642,
            16.664,
            16.687,
            16.709,
            16.754,
            16.777,
            16.8,
            16.822,
            16.845,
            16.89,
            16.913,
            16.936,
            16.958,
            16.981,
            17.027,
            17.05,
            17.072,
            17.095,
            17.141,
            17.164,
            17.187,
            17.21,
            17.233,
            17.279,
            17.301,
            17.324,
            17.347,
            17.394,
            17.417,
            17.44,
            17.463,
            17.486,
            17.532,
            17.555,
            17.578,
            17.601,
            17.625,
            17.671,
            17.694,
            17.717,
            17.741,
            17.787,
            17.811,
            17.834,
            17.857,
            17.904,
            17.927,
            17.951,
            17.974,
            17.997,
            18.021,
            18.068,
            18.091,
            18.115,
            18.138,
            18.186,
            18.209,
            18.233,
            18.256,
            18.28,
            18.327,
            18.351,
            18.374,
            18.398,
            18.446,
            18.469,
            18.493,
            18.517,
            18.54,
            18.588,
            18.612,
            18.636,
            18.66,
            18.683,
            18.731,
            18.755,
            18.779,
            18.803,
            18.827,
            18.875,
            18.899,
            18.923,
            18.947,
            18.971,
            19.019,
            19.043,
            19.067,
            19.091,
            19.14,
            19.164,
            19.188,
            19.212,
            19.261,
            19.285,
            19.309,
            19.334,
            19.382,
            19.407,
            19.431,
            19.455,
            19.48,
            19.504,
            19.553,
            19.577,
            19.602,
            19.651,
            19.675,
            19.7,
            19.724,
            19.749,
            19.773,
            19.822,
            19.847,
            19.872,
            19.896,
            19.921,
            19.97,
            19.995,
            20.02,
            20.044,
            20.069,
            20.119,
            20.143,
            20.168,
            20.193,
            20.243,
            20.268,
            20.292,
            20.317,
            20.367,
            20.392,
            20.417,
            20.442,
            20.467,
            20.517,
            20.542,
            20.567,
            20.592,
            20.642,
            20.667,
            20.692,
            20.718,
            20.743,
            20.768,
            20.818,
            20.843,
            20.869,
            20.894,
            20.944,
            20.97,
            20.995,
            21.02,
            21.046,
            21.096,
            21.122,
            21.147,
            21.198,
            21.223,
            21.249,
            21.274,
            21.3,
            21.325,
            21.376,
            21.402,
            21.428,
            21.453,
            21.479,
            21.53,
            21.556,
            21.581,
            21.607,
            21.658,
            21.684,
            21.71,
            21.735,
            21.761,
            21.813,
            21.838,
            21.864,
            21.89,
            21.916,
            21.968,
            21.994,
            22.019,
            22.045,
            22.097,
            22.123,
            22.149,
            22.175,
            22.227,
            22.253,
            22.279,
            22.306,
            22.332,
            22.384,
            22.41,
            22.436,
            22.462,
            22.489,
            22.515,
            22.567,
            22.593,
            22.62,
            22.646,
            22.698,
            22.725,
            22.751,
            22.778,
            22.804,
            22.857,
            22.883,
            22.909,
            22.936,
            22.989,
            23.015,
            23.042,
            23.068,
            23.095,
            23.148,
            23.175,
            23.201,
            23.228,
            23.281,
            23.308,
            23.334,
            23.361,
            23.388,
            23.441,
            23.468,
            23.495,
            23.522,
            23.548,
            23.602,
            23.629,
            23.656,
            23.683,
            23.709,
            23.763,
            23.79,
            23.817,
            23.844,
            23.898,
            23.925,
            23.952,
            23.979,
            24.006,
            24.06,
            24.087,
            24.115,
            24.142,
            24.169,
            24.223,
            24.25,
            24.278,
            24.305,
            24.359,
            24.386,
            24.414,
            24.441,
            24.496,
            24.523,
            24.55,
            24.578,
            24.605,
            24.66,
            24.687,
            24.715,
            24.742,
            24.77,
            24.825,
            24.852,
            24.88,
            24.908,
            24.963,
            24.99,
            25.018,
            25.045,
            25.101,
            25.129,
            25.156,
            25.184,
            25.212,
            25.267,
            25.295,
            25.323,
            25.35,
            25.378,
            25.434,
            25.462,
            25.49,
            25.518,
            25.573,
            25.601,
            25.629,
            25.657,
            25.685,
            25.713,
            25.769,
            25.797,
            25.825,
            25.881,
            25.91,
            25.938,
            25.966,
            25.994,
            26.022,
            26.079,
            26.107,
            26.135,
            26.163,
            26.22,
            26.248,
            26.276,
            26.305,
            26.333,
            26.361,
            26.418,
            26.447,
            26.475,
            26.503,
            26.56,
            26.589,
            26.617,
            26.646,
            26.674,
            26.731,
            26.76,
            26.788,
            26.817,
            26.846,
            26.903,
            26.932,
            26.96,
            27.018,
            27.046,
            27.075,
            27.104,
            27.133,
            27.19,
            27.219,
            27.248,
            27.277,
            27.305,
            27.363,
            27.392,
            27.421,
            27.45,
            27.479,
            27.537,
            27.566,
            27.595,
            27.624,
            27.682,
            27.711,
            27.74,
            27.769,
            27.827,
            27.856,
            27.886,
            27.915,
            27.944,
            28.002,
            28.032,
            28.061,
            28.09,
            28.119,
            28.149,
            28.207,
            28.237,
            28.266,
            28.295,
            28.354,
            28.384,
            28.413,
            28.442,
            28.472,
            28.531,
            28.56,
            28.59,
            28.62,
            28.649,
            28.708,
            28.738,
            28.767,
            28.797,
            28.856,
            28.886,
            28.916,
            28.945,
            28.975,
            29.035,
            29.064,
            29.094,
            29.124,
            29.184,
            29.213,
            29.243,
            29.273,
            29.303,
            29.363,
            29.393,
            29.423,
            29.453,
            29.513,
            29.543,
            29.573,
            29.603,
            29.633,
            29.693,
            29.723,
            29.753,
            29.783,
            29.844,
            29.874,
            29.904,
            29.934,
            29.964,
            29.995,
            30.055,
            30.086,
            30.116,
            30.176,
            30.207,
            30.237,
            30.268,
            30.298,
            30.328,
            30.389,
            30.42,
            30.45,
            30.511,
            30.542,
            30.572,
            30.603,
            30.633,
            30.664,
            30.725,
            30.756,
            30.786,
            30.817,
            30.847,
            30.909,
            30.94,
            30.97,
            31.032,
            31.063,
            31.093,
            31.124,
            31.155,
            31.217,
            31.247,
            31.278,
            31.309,
            31.34,
            31.402,
            31.433,
            31.464,
            31.495,
            31.526,
            31.588,
            31.619,
            31.65,
            31.681,
            31.743,
            31.774,
            31.806,
            31.837,
            31.868,
            31.93,
            31.962,
            31.993,
            32.024,
            32.087,
            32.118,
            32.149,
            32.18,
            32.212,
            32.243,
            32.274,
            32.337,
            32.369,
            32.4,
            32.432,
            32.495,
            32.526,
            32.557,
            32.621,
            32.652,
            32.684,
            32.715,
            32.747,
            32.81,
            32.842,
            32.873,
            32.905,
            32.937,
            33.0,
            33.032,
            33.064,
            33.095,
            33.127,
            33.191,
            33.223,
            33.254,
            33.286,
            33.35,
            33.382,
            33.414,
            33.478,
            33.542,
            33.574,
            33.606,
            33.638,
            33.702,
            33.734,
            33.766,
            33.798,
            33.83,
            33.862,
            33.927,
            33.959,
            33.991,
            34.055,
            34.088,
            34.12,
            34.152,
            34.184,
            34.249,
            34.281,
            34.314,
            34.346,
            34.378,
            34.443,
            34.476,
            34.508,
            34.54,
            34.573,
            34.638,
            34.67,
            34.703,
            34.735,
            34.801,
            34.833,
            34.866,
            34.898,
            34.931,
            34.996,
            35.029,
            35.062,
            35.127,
            35.16,
            35.193,
            35.225,
            35.258,
            35.291,
            35.357,
            35.389,
            35.422,
            35.455,
            35.488,
            35.521,
            35.587,
            35.62,
            35.653,
            35.719,
            35.752,
            35.785,
            35.818,
            35.851,
            35.917,
            35.95,
            35.983,
            36.016,
            36.083,
            36.116,
            36.149,
            36.182,
            36.215,
            36.249,
            36.315,
            36.348,
            36.382,
            36.448,
            36.482,
            36.515,
            36.549,
            36.582,
            36.615,
            36.682,
            36.716,
            36.749,
            36.783,
            36.816,
            36.883,
            36.917,
            36.95,
            36.984,
            37.051,
            37.085,
            37.118,
            37.186,
            37.219,
            37.253,
            37.287,
            37.32,
            37.354,
            37.422,
            37.455,
            37.489,
            37.523,
            37.557,
            37.591,
            37.658,
            37.692,
            37.726,
            37.76,
            37.828,
            37.862,
            37.896,
            37.93,
            37.964,
            38.032,
            38.066,
            38.1,
            38.168,
            38.203,
            38.237,
            38.271,
            38.305,
            38.339,
            38.408,
            38.442,
            38.476,
            38.545,
            38.579,
            38.613,
            38.648,
            38.682,
            38.716,
            38.785,
            38.819,
            38.854,
            38.888,
            38.957,
            38.992,
            39.026,
            39.061,
            39.095,
            39.164,
            39.199,
            39.233,
            39.268,
            39.303,
            39.372,
            39.406,
            39.441,
            39.476,
            39.545,
            39.58,
            39.615,
            39.649,
            39.719,
            39.789,
            39.823,
            39.858,
            39.928,
            39.963,
            39.998,
            40.033,
            40.103,
            40.138,
            40.173,
            40.208,
            40.244,
            40.279,
            40.35,
            40.385,
            40.42,
            40.456,
            40.492,
            40.563,
            40.599,
            40.634,
            40.67,
            40.706,
            40.742,
            40.814,
            40.85,
            40.886,
            40.922,
            40.958,
            40.994,
            41.067,
            41.103,
            41.14,
            41.176,
            41.213,
            41.286,
            41.322,
            41.359,
            41.433,
            41.47,
            41.507,
            41.543,
            41.581,
            41.655,
            41.729,
            41.766,
            41.804,
            41.841,
            41.878,
            41.953,
            41.991,
            42.028,
            42.066,
            42.104,
            42.142,
            42.179,
            42.255,
            42.293,
            42.331,
            42.369,
            42.407,
            42.446,
            42.484,
            42.522,
            42.599,
            42.637,
            42.676,
            42.714,
            42.753,
            42.791,
            42.869,
            42.908,
            42.946,
            42.985,
            43.024,
            43.063,
            43.102,
            43.141,
            43.22,
            43.259,
            43.298,
            43.338,
            43.377,
            43.417,
            43.456,
            43.496,
            43.535,
            43.615,
            43.655,
            43.695,
            43.735,
            43.774,
            43.814,
            43.855,
            43.895,
            43.935,
            43.975,
            44.056,
            44.096,
            44.137,
            44.177,
            44.218,
            44.258,
            44.299,
            44.381,
            44.422,
            44.463,
            44.504,
            44.544,
            44.586,
            44.627,
            44.668,
            44.709,
            44.751,
            44.792,
            44.833,
            44.916,
            44.958,
            45.041,
            45.083,
            45.125,
            45.167,
            45.209,
            45.251,
            45.293,
            45.335,
            45.377,
            45.419,
            45.462,
            45.504,
            45.547,
            45.632,
            45.674,
            45.717,
            45.76,
            45.802,
            45.845,
            45.888,
            45.931,
            45.974,
            46.017,
            46.06,
            46.147,
            46.19,
            46.277,
            46.321,
            46.408,
            46.451,
            46.495,
            46.539,
            46.583,
            46.627,
            46.671,
            46.715,
            46.759,
            46.803,
            46.848,
            46.892,
            46.936,
            46.981,
            47.025,
            47.07,
            47.159,
            47.204,
            47.249,
            47.339,
            47.429,
            47.474,
            47.564,
            47.61,
            47.655,
            47.7,
            47.746,
            47.792,
            47.837,
            47.883,
            47.929,
            47.975,
            48.021,
            48.113,
            48.159,
            48.205,
            48.251,
            48.297,
            48.344,
            48.39,
            48.437,
            48.484,
            48.577,
            48.624,
            48.671,
            48.717,
            48.764,
            48.812,
            48.859,
            48.906,
            48.953,
            49.001,
            49.048,
            49.095,
            49.143,
            49.191,
            49.238,
            49.286,
            49.334,
            49.382,
            49.43,
            49.478,
            49.526,
            49.574,
            49.622,
            49.671,
            49.719,
            49.767,
            49.816,
            49.865,
            49.962,
            50.011,
            50.06,
            50.109,
            50.158,
            50.207,
            50.256,
            50.305,
            50.354,
            50.404,
            50.453,
            50.503,
            50.553,
            50.602,
            50.652,
            50.702,
            50.752,
            50.802,
            50.852,
            50.902,
            50.952,
            51.002,
            51.053,
            51.103,
            51.154,
            51.204,
            51.255,
            51.306,
            51.356,
            51.407,
            51.458,
            51.509,
            51.56,
            51.611,
            51.663,
            51.714,
            51.765,
            51.817,
            51.869,
            51.92,
            51.972,
            52.024,
            52.075,
            52.128,
            52.179,
            52.232,
            52.284,
            52.336,
            52.388,
            52.441,
            52.493,
            52.599,
            52.651,
            52.704,
            52.757,
            52.81,
            52.863,
            52.916,
            52.969,
            53.023,
            53.076,
            53.13,
            53.183,
            53.237,
            53.29,
            53.344,
            53.398,
            53.452,
            53.506,
            53.56,
            53.614,
            53.668,
            53.723,
            53.777,
            53.832,
            53.886,
            53.941,
            53.996,
            54.051,
            54.106,
            54.161,
            54.216,
            54.271,
            54.326,
            54.381,
            54.437,
            54.493,
            54.548,
            54.604,
            54.66,
            54.715,
            54.771,
            54.827,
            54.883,
            54.94,
            54.996,
            55.052,
            55.109,
            55.165,
            55.222,
            55.279,
            55.336,
            55.392,
            55.449,
            55.507,
            55.621,
            55.678,
            55.736,
            55.793,
            55.851,
            55.909,
            55.966,
            56.024,
            56.082,
            56.14,
            56.198,
            56.257,
            56.315,
            56.373,
            56.432,
            56.491,
            56.549,
            56.608,
            56.667,
            56.726,
            56.844,
            56.903,
            56.963,
            57.022,
            57.082,
            57.141,
            57.201,
            57.261,
            57.321,
            57.381,
            57.441,
            57.501,
            57.561,
            57.622,
            57.682,
            57.743,
            57.803,
            57.864,
            57.925,
            57.986,
            58.047,
            58.108,
            58.169,
            58.231,
            58.292,
            58.354,
            58.415,
            58.477,
            58.539,
            58.601,
            58.663,
            58.725,
            58.787,
            58.85,
            58.912,
            58.974,
            59.037,
            59.1,
            59.162,
            59.225,
            59.289,
            59.352,
            59.415,
            59.478,
            59.542,
            59.605,
            59.669,
            59.732,
            59.796,
            59.86,
            59.924,
            59.988,
            60.053,
            60.117,
            60.181,
            60.246,
            60.311,
            60.375,
            60.44,
            60.505,
            60.57,
            60.635,
            60.701,
            60.766,
            60.832,
            60.897,
            60.963,
            61.029,
            61.094,
            61.16,
            61.227,
            61.293,
            61.359,
            61.426,
            61.492,
            61.559,
            61.626,
            61.693,
            61.76,
            61.827,
            61.894,
            61.961,
            62.029,
            62.096,
            62.164,
            62.232,
            62.3,
            62.368,
            62.436,
            62.504,
            62.572,
            62.64,
            62.778,
            62.847,
            62.915,
            62.984,
            63.053,
            63.123,
            63.192,
            63.262,
            63.331,
            63.401,
            63.471,
            63.541,
            63.611,
            63.681,
            63.751,
            63.821,
            63.892,
            63.962,
            64.033,
            64.104,
            64.175,
            64.246,
            64.317,
            64.389,
            64.46,
            64.532,
            64.603,
            64.675,
            64.747,
            64.819,
            64.891,
            64.963,
            65.036,
            65.108,
            65.181,
            65.254,
            65.4,
            65.473,
            65.546,
            65.619,
            65.693,
            65.767,
            65.84,
            65.914,
            65.988,
            66.062,
            66.136,
            66.211,
            66.285,
            66.36,
            66.435,
            66.51,
            66.584,
            66.66,
            66.735,
            66.81,
            66.886,
            66.961,
            67.037,
            67.113,
            67.189,
            67.265,
            67.341,
            67.418,
            67.494,
            67.571,
            67.648,
            67.725,
            67.802,
            67.879,
            67.956,
            68.111,
            68.189,
            68.267,
            68.345,
            68.423,
            68.501,
            68.58,
            68.658,
            68.737,
            68.816,
            68.895,
            68.974,
            69.053,
            69.132,
            69.212,
            69.291,
            69.371,
            69.451,
            69.531,
            69.611,
            69.692,
            69.772,
            69.853,
            69.934,
            70.014,
            70.095,
            70.177,
            70.258,
            70.339,
            70.421,
            70.503,
            70.584,
            70.666,
            70.749,
            70.831,
            70.913,
            70.996,
            71.079,
            71.161,
            71.244,
            71.327,
            71.494,
            71.578,
            71.662,
            71.745,
            71.914,
            71.998,
            72.082,
            72.167,
            72.252,
            72.337,
            72.422,
            72.507,
            72.593,
            72.678,
            72.764,
            72.85,
            72.936,
            73.022,
            73.108,
            73.194,
            73.281,
            73.368,
            73.455,
            73.542,
            73.629,
            73.716,
            73.804,
            73.892,
            73.979,
            74.067,
            74.155,
            74.244,
            74.332,
            74.421,
            74.51,
            74.599,
            74.688,
            74.777,
            74.866,
            74.956,
            75.046,
            75.135,
            75.226,
            75.316,
            75.406,
            75.497,
            75.588,
            75.769,
            75.861,
            75.952,
            76.044,
            76.135,
            76.227,
            76.319,
            76.411,
            76.504,
            76.596,
            76.689,
            76.782,
            76.968,
            77.061,
            77.155,
            77.249,
            77.343,
            77.437,
            77.531,
            77.625,
            77.72,
            77.815,
            77.91,
            78.005,
            78.1,
            78.195,
            78.291,
            78.387,
            78.483,
            78.579,
            78.675,
            78.772,
            78.869,
            78.965,
            79.062,
            79.16,
            79.257,
            79.355,
            79.452,
            79.55,
            79.648,
            79.747,
            79.845,
            79.944,
            80.043,
            80.142,
            80.241,
            80.34,
            80.44,
            80.54,
            80.64,
            80.74,
            80.84,
            81.041,
            81.142,
            81.243,
            81.345,
            81.446,
            81.548,
            81.65,
            81.752,
            81.854,
            81.956,
            82.059,
            82.162,
            82.265,
            82.368,
            82.471,
            82.575,
            82.679,
            82.783,
            82.887,
            82.991,
            83.096,
            83.2,
            83.305,
            83.41,
            83.516,
            83.621,
            83.727,
            83.833,
            83.939,
            84.046,
            84.152,
            84.259,
            84.366,
            84.473,
            84.581,
            84.688,
            84.796,
            84.904,
            85.012,
            85.12,
            85.229,
            85.338,
            85.447,
            85.556,
            85.666,
            85.775,
            85.885,
            85.995,
            86.106,
            86.216,
            86.327,
            86.438,
            86.549,
            86.66,
            86.772,
            86.884,
            86.996,
            87.108,
            87.22,
            87.333,
            87.446,
            87.559,
            87.672,
            87.786,
            87.899,
            88.014,
            88.128,
            88.242,
            88.357,
            88.472,
            88.587,
            88.702,
            88.818,
            88.933,
            89.049,
            89.166,
            89.282,
            89.399,
            89.516,
            89.633,
            89.75,
            89.868,
            89.986,
            90.104,
            90.222,
            90.34,
            90.459,
            90.578,
            90.697,
            90.817,
            90.937,
            91.057,
            91.177,
            91.297,
            91.418,
            91.539,
            91.66,
            91.781,
            91.903,
            92.025,
            92.147,
            92.269,
            92.392,
            92.515,
            92.638,
            92.761,
            92.885,
            93.008,
            93.132,
            93.257,
            93.381,
            93.506,
            93.631,
            93.756,
            93.882,
            94.008,
            94.134,
            94.26,
            94.387,
            94.514,
            94.641,
            94.768,
            94.896,
            95.024,
            95.152,
            95.28,
            95.409,
            95.538,
            95.667,
            95.796,
            95.926,
            96.056,
            96.186,
            96.317,
            96.447,
            96.71,
            96.841,
            96.973,
            97.105,
            97.238,
            97.37,
            97.503,
            97.636,
            97.77,
            97.903,
            98.037,
            98.172,
            98.306,
            98.441,
            98.576,
            98.711,
            98.847,
            98.983,
            99.119,
            99.256,
            99.393,
            99.53,
            99.667,
            99.805,
            99.943,
            100.08,
            100.22,
            100.36,
            100.5,
            100.64,
            100.78,
            100.92,
            101.06,
            101.2,
            101.34,
            101.48,
            101.62,
            101.76,
            101.9,
            102.05,
            102.19,
            102.33,
            102.47,
            102.62,
            102.76,
            102.91,
            103.05,
            103.2,
            103.34,
            103.49,
            103.63,
            103.78,
            103.92,
            104.07,
            104.22,
            104.36,
            104.51,
            104.66,
            104.81,
            104.96,
            105.11,
            105.25,
            105.4,
            105.55,
            105.7,
            105.85,
            106.0,
            106.16,
            106.31,
            106.46,
            106.61,
            106.76,
            106.91,
            107.07,
            107.22,
            107.37,
            107.53,
            107.68,
            107.84,
            107.99,
            108.15,
            108.3,
            108.46,
            108.61,
            108.77,
            108.93,
            109.09,
            109.24,
            109.4,
            109.56,
            109.72,
            109.88,
            110.04,
            110.2,
            110.36,
            110.52,
            110.68,
            110.84,
            111.0,
            111.16,
            111.32,
            111.49,
            111.65,
            111.81,
            111.98,
            112.14,
            112.3,
            112.47,
            112.63,
            112.8,
            112.97,
            113.13,
            113.3,
            113.46,
            113.63,
            113.8,
            113.97,
            114.14,
            114.3,
            114.47,
            114.64,
            114.81,
            114.98,
            115.15,
            115.32,
            115.49,
            115.67,
            115.84,
            116.01,
            116.18,
            116.36,
            116.53,
            116.71,
            116.88,
            117.05,
            117.23,
            117.41,
            117.58,
            117.76,
            117.93,
            118.11,
            118.29,
            118.47,
            118.65,
            118.82,
            119.0,
            119.18,
            119.36,
            119.54,
            119.72,
            119.91,
            120.09,
            120.27,
            120.45,
            120.64,
            120.82,
            121.0,
            121.19,
            121.37,
            121.56,
            121.74,
            121.93,
            122.11,
            122.3,
            122.49,
            122.68,
            122.86,
            123.05,
            123.24,
            123.43,
            123.62,
            123.81,
            124.0,
            124.19,
            124.38,
            124.57,
            124.77,
            124.96,
            125.15,
            125.35,
            125.54,
            125.74,
            125.93,
            126.13,
            126.32,
            126.52,
            126.72,
            127.11,
            127.31,
            127.51,
            127.71,
            127.91,
            128.11,
            128.31,
            128.51,
            128.71,
            128.91,
            129.11,
            129.32,
            129.52,
            129.73,
            129.93,
            130.13,
            130.34,
            130.55,
            130.75,
            130.96,
            131.17,
            131.37,
            131.58,
            131.79,
            132.0,
            132.21,
            132.42,
            132.63,
            132.84,
            133.05,
            133.27,
            133.48,
            133.69,
            133.91,
            134.12,
            134.34,
            134.55,
            134.77,
            134.98,
            135.2,
            135.42,
            135.64,
            135.85,
            136.07,
            136.29,
            136.51,
            136.73,
            136.96,
            137.18,
            137.4,
            137.62,
            137.85,
            138.07,
            138.3,
            138.52,
            138.75,
            138.97,
            139.2,
            139.43,
            139.65,
            139.88,
            140.11,
            140.34,
            140.57,
            140.8,
            141.03,
            141.26,
            141.5,
            141.73,
            141.96,
            142.2,
            142.43,
            142.67,
            142.9,
            143.14,
            143.38,
            143.61,
            143.85,
            144.09,
            144.33,
            144.57,
            144.81,
            145.05,
            145.29,
            145.53,
            145.78,
            146.02,
            146.27,
            146.51,
            146.76,
            147.0,
            147.25,
            147.5,
            147.74,
            147.99,
            148.24,
            148.49,
            148.74,
            148.99,
            149.24,
            149.5,
            149.75,
            150.0,
            150.26,
            150.51,
            150.77,
            151.02,
            151.28,
            151.54,
            151.8,
            152.06,
            152.31,
            152.57,
            152.84,
            153.1,
            153.36,
            153.62,
            153.89,
            154.15,
            154.41,
            154.68,
            154.95,
            155.21,
            155.48,
            155.75,
            156.02,
            156.29,
            156.56,
            156.83,
            157.1,
            157.37,
            157.65,
            157.92,
            158.19,
            158.47,
            158.75,
            159.02,
            159.3,
            159.58,
            159.86,
            160.14,
            160.42,
            160.7,
            160.98,
            161.26,
            161.55,
            161.83,
            162.12,
            162.4,
            162.69,
            162.98,
            163.26,
            163.55,
            163.84,
            164.13,
            164.42,
            164.72,
            165.3,
            165.6,
            165.89,
            166.19,
            166.48,
            166.78,
            167.08,
            167.38,
            167.68,
            167.98,
            168.28,
            168.58,
            168.88,
            169.19,
            169.49,
            169.8,
            170.1,
            170.41,
            170.72,
            171.03,
            171.34,
            171.65,
            171.96,
            172.27,
            172.58,
            172.9,
            173.21,
            173.53,
            173.84,
            174.16,
            174.48,
            174.8,
            175.12,
            175.44,
            175.76,
            176.08,
            176.41,
            176.73,
            177.06,
            177.38,
            177.71,
            178.04,
            178.36,
            178.69,
            179.02,
            179.36,
            179.69,
            180.02,
            180.36,
            180.69,
            181.03,
            181.37,
            181.7,
            182.04,
            182.38,
            182.72,
            183.06,
            183.41,
            183.75,
            184.1,
            184.44,
            184.79,
            185.14,
            185.49,
            185.84,
            186.19,
            186.54,
            186.89,
            187.24,
            187.6,
            187.95,
            188.31,
            188.67,
            189.03,
            189.39,
            189.75,
            190.11,
            190.47,
            190.84,
            191.2,
            191.57,
            191.93,
            192.3,
            192.67,
            193.04,
            193.41,
            193.78,
            194.16,
            194.53,
            194.91,
            195.28,
            195.66,
            196.04,
            196.42,
            196.8,
            197.19,
            197.57,
            197.95,
            198.34,
            198.73,
            199.11,
            199.5,
            199.89,
            200.28,
            200.68,
            201.07,
            201.46,
            201.86,
            202.26,
            202.65,
            203.05,
            203.45,
            203.86,
            204.26,
            204.66,
            205.07,
            205.48,
            205.88,
            206.29,
            206.7,
            207.11,
            207.53,
            207.94,
            208.35,
            208.77,
            209.19,
            209.61,
            210.03,
            210.45,
            210.87,
            211.3,
            211.72,
            212.15,
            212.57,
            213.0,
            213.43,
            213.87,
            214.3,
            214.73,
            215.17,
            215.6,
            216.04,
            216.48,
            216.92,
            217.37,
            217.81,
            218.26,
            218.7,
            219.15,
            219.6,
            220.05,
            220.5,
            220.95,
            221.41,
            221.86,
            222.32,
            222.78,
            223.24,
            223.7,
            224.17,
            224.63,
            225.1,
            225.56,
            226.03,
            226.51,
            226.98,
            227.45,
            227.93,
            228.4,
            228.88,
            229.36,
            229.84,
            230.32,
            230.81,
            231.29,
            231.78,
            232.27,
            232.76,
            233.25,
            233.74,
            234.24,
            234.73,
            235.23,
            235.73,
            236.23,
            236.73,
            237.24,
            237.74,
            238.25,
            238.76,
            239.27,
            239.78,
            240.3,
            240.81,
            241.33,
            241.85,
            242.37,
            242.89,
            243.42,
            243.94,
            244.47,
            245.0,
            245.53,
            246.06,
            246.6,
            247.13,
            247.67,
            248.21,
            248.75,
            249.3,
            249.84,
            250.39,
            250.94,
            251.49,
            252.04,
            252.59,
            253.15,
            253.71,
            254.27,
            254.83,
            255.39,
            255.96,
            256.52,
            257.09,
            257.66,
            258.24,
            258.81,
            259.39,
            259.97,
            260.55,
            261.13,
            261.71,
            262.3,
            262.89,
            263.48,
            264.07,
            264.66,
            265.26,
            265.86,
            266.46,
            267.06,
            267.67,
            268.27,
            268.88,
            269.49,
            270.1,
            270.72,
            271.33,
            271.95,
            272.57,
            273.2,
            273.82,
            274.45,
            275.08,
            275.71,
            276.34,
            276.98,
            277.62,
            278.26,
            278.9,
            279.55,
            280.19,
            280.84,
            281.5,
            282.15,
            282.81,
            283.47,
            284.13,
            284.79,
            285.45,
            286.12,
            286.79,
            287.47,
            288.14,
            288.82,
            289.5,
            290.18,
            290.86,
            291.55,
            292.24,
            292.93,
            293.63,
            294.32,
            295.02,
            296.43,
            297.14,
            297.84,
            298.56,
            299.27,
            299.99,
            300.71,
            301.43,
            302.16,
            302.88,
            303.61,
            304.34,
            305.08,
            305.82,
            306.56,
            307.3,
            308.05,
            308.8,
            309.55,
            310.3,
            311.06,
            311.82,
            312.58,
            313.35,
            314.12,
            314.89,
            315.66,
            316.44,
            317.22,
            318.0,
            318.78,
            319.57,
            320.36,
            321.16,
            321.96,
            322.76,
            323.56,
            324.36,
            325.17,
            325.99,
            326.8,
            327.62,
            328.44,
            329.26,
            330.09,
            330.92,
            331.76,
            332.59,
            333.43,
            334.28,
            335.12,
            335.97,
            336.83,
            337.68,
            338.54,
            339.41,
            340.27,
            341.14,
            342.01,
            342.89,
            343.77,
            344.65,
            345.54,
            346.43,
            347.32,
            348.22,
            349.12,
            350.02,
            350.93,
            351.84,
            352.75,
            353.67,
            354.59,
            355.52,
            356.44,
            357.38,
            358.31,
            359.25,
            360.2,
            361.14,
            362.09,
            363.05,
            364.01,
            364.97,
            365.93,
            366.9,
            367.88,
            368.85,
            369.84,
            370.82,
            371.81,
            372.8,
            373.8,
            374.8,
            375.81,
            376.82,
            377.83,
            378.85,
            379.87,
            380.89,
            381.92,
            382.96,
            384.0,
            385.04,
            386.08,
            387.14,
            388.19,
            389.25,
            390.31,
            391.38,
            392.45,
            393.53,
            394.61,
            395.7,
            396.79,
            397.89,
            398.99,
            400.09,
            401.2,
            402.31,
            403.43,
            404.55,
            405.68,
            406.81,
            407.95,
            409.09,
            410.24,
            411.39,
            412.54,
            413.7,
            414.87,
            416.04,
            417.22,
            418.4,
            419.58,
            420.77,
            421.97,
            423.17,
            424.37,
            425.59,
            426.8,
            428.02,
            429.25,
            430.48,
            431.72,
            432.96,
            434.21,
            435.47,
            436.73,
            437.99,
            439.26,
            440.53,
            441.82,
            443.1,
            444.4,
            445.69,
            447.0,
            448.31,
            449.62,
            450.94,
            452.27,
            453.6,
            454.94,
            456.28,
            457.64,
            458.99,
            460.35,
            461.72,
            463.1,
            464.48,
            465.87,
            467.26,
            468.66,
            470.07,
            471.48,
            472.9,
            474.32,
            475.75,
            477.19,
            478.63,
            480.08,
            481.54,
            483.01,
            484.48,
            485.96,
            487.44,
            488.93,
            490.43,
            491.93,
            493.45,
            494.97,
            496.49,
            498.02,
            499.57,
            501.11,
            502.67,
            504.23,
            505.8,
            507.37,
            508.96,
            510.55,
            512.15,
            513.75,
            515.37,
            516.99,
            520.26,
            521.9,
            523.55,
            525.21,
            526.88,
            528.56,
            530.24,
            531.93,
            535.34,
            538.78,
            540.52,
            542.26,
            544.01,
            545.77,
            547.53,
            549.31,
            551.09,
            552.89,
            554.69,
            556.5,
            558.32,
            560.15,
            561.98,
            563.83,
            565.69,
            567.55,
            569.42,
            571.31,
            573.2,
            575.1,
            577.01,
            578.94,
            580.87,
            582.81,
            584.76,
            586.72,
            588.69,
            590.67,
            592.66,
            594.66,
            596.67,
            598.69,
            600.72,
            602.76,
            604.81,
            606.87,
            608.94,
            611.03,
            613.12,
            615.22,
            617.34,
            619.47,
            621.6,
            623.75,
            625.91,
            628.08,
            630.26,
            632.46,
            634.66,
            636.88,
            639.11,
            641.35,
            643.6,
            645.86,
            648.14,
            650.43,
            652.72,
            655.04,
            657.36,
            659.7,
            662.05,
            664.41,
            666.78,
            669.17,
            671.57,
            673.98,
            676.41,
            678.85,
            681.3,
            683.76,
            686.24,
            688.74,
            691.24,
            693.76,
            696.29,
            698.84,
            701.4,
            703.98,
            706.57,
            709.17,
            711.79,
            714.42,
            717.07,
            719.74,
            722.41,
            725.1,
            727.81,
            730.53,
            733.27,
            736.03,
            738.79,
            741.58,
            744.38,
            747.19,
            750.03,
            752.87,
            755.74,
            758.62,
            761.52,
            764.43,
            767.36,
            770.31,
            773.27,
            776.26,
            779.26,
            782.27,
            785.31,
            788.36,
            791.43,
            794.51,
            797.62,
            800.74,
            803.89,
            807.05,
            810.23,
            813.42,
            816.64,
            819.88,
            823.13,
            826.41,
            829.7,
            833.02,
            836.35,
            839.71,
            843.08,
            846.48,
            849.89,
            853.33,
            856.79,
            860.26,
            863.76,
            867.28,
            870.83,
            874.39,
            877.98,
            881.59,
            885.22,
            888.87,
            892.54,
            896.24,
            899.97,
            903.71,
            907.48,
            911.27,
            915.08,
            918.92,
            922.79,
            926.68,
            930.59,
            934.53,
            938.49,
            942.48,
            946.49,
            950.53,
            954.6,
            958.69,
            962.81,
            966.95,
            971.12,
            975.32,
            979.54,
            983.8,
            988.08,
            992.39,
            996.72,
            1001.1,
            1005.5,
            1009.9,
            1014.4,
            1018.8,
            1023.3,
            1027.9,
            1032.5,
            1037.1,
            1041.7,
            1046.4,
            1051.1,
            1055.8,
            1060.6,
            1065.3,
            1070.2,
            1075.0,
            1079.9,
            1084.8,
            1089.8,
            1094.8,
            1099.8,
            1104.9,
            1110.0,
            1115.1,
            1120.3,
            1125.5,
            1130.7,
            1136.0,
            1141.3,
            1146.7,
            1152.0,
            1157.5,
            1162.9,
            1168.4,
            1174.0,
            1179.6,
            1185.2,
            1190.8,
            1196.5,
            1202.3,
            1208.1,
            1213.9,
            1219.8,
            1225.7,
            1231.6,
            1237.6,
            1243.7,
            1249.8,
            1255.9,
            1262.1,
            1268.3,
            1274.6,
            1280.9,
            1287.2,
            1293.7,
            1300.1,
            1306.6,
            1313.2,
            1319.8,
            1326.4,
            1333.1,
            1339.9,
            1346.7,
            1353.6,
            1360.5,
            1367.4,
            1374.5,
            1381.5,
            1388.7,
            1395.8,
            1403.1,
            1410.4,
            1417.7,
            1425.2,
            1432.6,
            1440.2,
            1447.7,
            1455.4,
            1463.1,
            1470.9,
            1478.7,
            1486.6,
            1494.5,
            1502.6,
            1510.7,
            1518.8,
            1527.0,
            1535.3,
            1543.7,
            1552.1,
            1560.6,
            1569.1,
            1577.8,
            1586.5,
            1595.2,
            1604.1,
            1613.0,
            1622.0,
            1631.1,
            1640.2,
            1649.4,
            1658.7,
            1668.1,
            1677.6,
            1687.1,
            1696.8,
            1706.5,
            1716.2,
            1726.1,
            1736.1,
            1746.1,
            1756.3,
            1766.5,
            1776.8,
            1787.2,
            1797.7,
            1808.3,
            1819.0,
            1829.7,
            1840.6,
            1851.6,
            1862.7,
            1873.8,
            1885.1,
            1896.4,
            1907.9,
            1919.5,
            1931.2,
            1943.0,
            1954.9,
            1966.9,
            1979.0,
            1991.2,
            2003.6,
            2016.0,
            2028.6,
            2041.3,
            2054.1,
            2067.1,
            2080.1,
            2093.3,
            2106.6,
            2120.0,
            2133.6,
            2147.3,
            2161.1,
            2175.1,
            2189.2,
            2203.4,
            2217.8,
            2232.3,
            2247.0,
            2261.8,
            2276.7,
            2291.8,
            2307.1,
            2322.4,
            2338.0,
            2353.7,
            2369.6,
            2385.6,
            2401.8,
            2418.2,
            2434.7,
            2451.4,
            2468.3,
            2485.3,
            2502.6,
            2519.9,
            2537.5,
            2555.3,
            2573.3,
            2591.4,
            2609.7,
            2628.3,
            2647.0,
            2666.0,
            2685.1,
            2704.4,
            2724.0,
            2743.8,
            2763.7,
            2783.9,
            2804.4,
            2825.0,
            2845.9,
            2867.0,
            2888.4,
            2910.0,
            2931.8,
            2953.9,
            2976.2,
            2998.8,
            3021.6,
            3044.7,
            3068.1,
            3091.7,
            3115.6,
            3139.8,
            3164.3,
            3189.1,
            3214.1,
            3239.5,
            3265.1,
            3291.1,
            3317.3,
            3343.9,
            3370.8,
            3398.0,
            3425.6,
            3453.5,
            3481.7,
            3510.3,
            3539.3,
            3568.6,
            3598.2,
            3628.3,
            3658.7,
            3689.5,
            3720.7,
            3752.2,
            3784.2,
            3816.6,
            3849.5,
            3882.7,
            3916.4,
            3950.5,
            3985.1,
            4020.1,
            4055.6,
            4091.5,
            4128.0,
            4164.9,
            4202.3,
            4240.2,
            4278.7,
            4317.6,
            4357.2,
            4397.2,
            4437.8,
            4479.0,
            4520.7,
            4563.1,
            4606.0,
            4649.5,
            4693.7,
            4738.5,
            4783.9,
            4830.0,
            4876.8,
            4924.2,
            4972.3,
            5021.2,
            5070.8,
            5121.1,
            5172.1,
            5224.0,
            5276.6,
            5330.0,
            5384.2,
            5439.3,
            5495.2,
            5552.0,
            5609.6,
            5668.2,
            5727.6,
            5788.1,
            5849.5,
            5911.8,
            5975.2,
            6039.6,
            6105.0,
            6171.5,
            6239.1,
            6307.9,
            6377.7,
            6448.7,
            6521.0,
            6594.4,
            6669.1,
            6745.1,
            6822.4,
            6901.0,
            6980.9,
            7062.3,
            7145.1,
            7229.4,
            7315.1,
            7402.5,
            7491.3,
            7581.8,
            7674.0,
            7767.8,
            7863.3,
            7960.7,
            8059.8,
            8160.8,
            8263.7,
            8368.6,
            8475.5,
            8584.5,
            8695.5,
            8808.8,
            8924.3,
            9042.0,
            9162.1,
            9284.6,
            9409.6,
            9537.1,
            9667.2,
            9800.1,
            9935.6,
            10074.0,
            10215.0,
            10360.0,
            10507.0,
            10658.0,
            10811.0,
            10969.0,
            11129.0,
            11293.0,
            11461.0,
            11633.0,
            11808.0,
            11988.0,
            12171.0,
            12359.0,
            12552.0,
            12748.0,
            12950.0,
            13156.0,
            13367.0,
            13584.0,
            13805.0,
            14032.0,
            14265.0,
            14504.0,
            14748.0,
            14999.0,
            15256.0,
            15521.0,
            15791.0,
            16070.0,
            16355.0,
            16648.0,
            16949.0,
            17259.0,
            17577.0,
            17903.0,
            18239.0,
            18585.0,
            18940.0,
            19306.0,
            19683.0,
            20070.0,
            20469.0,
            20880.0,
            21304.0,
            21741.0,
            22191.0,
            22655.0,
            23135.0,
            23629.0,
            24140.0,
            24667.0,
            25211.0,
            25774.0,
            26356.0,
            26958.0,
            27581.0,
            28226.0,
            28893.0,
            29585.0,
            31044.0,
            31815.0,
            32615.0,
            33445.0,
            34307.0,
            35203.0,
            36135.0,
            37104.0,
            38113.0,
            39164.0,
            40258.0,
            41399.0,
            42589.0,
            43831.0,
            45129.0,
            46485.0,
            47903.0,
            49387.0,
            50940.0,
            52569.0,
            54276.0,
            56069.0,
            57951.0,
            59930.0,
            62013.0,
            64205.0,
            66516.0,
            68954.0,
            71529.0,
            74251.0,
            77130.0,
            80181.0,
            83417.0,
            86852.0,
            90504.0,
            94392.0,
            98535.0,
            102960.0,
            107680.0,
            112740.0,
            118170.0,
            124000.0,
            130270.0,
            137020.0,
            144320.0,
            152210.0,
            160770.0,
            170080.0,
            180210.0,
            191280.0,
            203410.0,
            216720.0,
            231390.0,
            247590.0,
            265560.0,
            285560.0,
            307910.0,
            332990.0,
            361270.0,
            393310.0,
            429810.0,
            471640.0,
            519900.0,
            575960.0,
            641610.0,
            719180.0,
            811720.0,
            923370.0,
            1059800.0,
            1228800.0,
            1442000.0,
            1715800.0,
            2076100.0,
            2563400.0,
            3245600.0
          ],
          [
            108.9,
            225.71,
            120.69,
            118.16,
            163.14,
            185.45,
            120.89,
            122.21,
            116.55,
            177.44,
            150.17,
            101.41,
            108.36,
            120.18,
            111.39,
            106.27,
            99.106,
            86.654,
            25.467,
            15.616,
            63.401,
            22.246,
            23.051,
            48.926,
            42.557,
            36.762,
            32.493,
            62.12,
            72.761,
            88.907,
            93.682,
            94.703,
            152.97,
            162.25,
            135.51,
            165.53,
            164.38,
            193.35,
            230.27,
            257.74,
            310.12,
            344.93,
            270.68,
            291.03,
            396.95,
            378.74,
            383.3,
            518.29,
            439.05,
            407.15,
            390.4,
            205.44,
            282.57,
            303.68,
            283.88,
            292.64,
            254.79,
            221.06,
            164.92,
            179.12,
            151.55,
            156.12,
            120.56,
            103.23,
            121.21,
            113.58,
            73.184,
            122.92,
            95.743,
            58.102,
            96.296,
            89.734,
            49.98,
            40.044,
            64.452,
            59.568,
            48.904,
            28.04,
            39.821,
            80.251,
            68.771,
            57.396,
            39.396,
            40.188,
            39.789,
            17.938,
            29.304,
            36.481,
            20.907,
            50.15,
            43.19,
            57.639,
            60.506,
            51.169,
            69.479,
            74.204,
            90.891,
            120.99,
            77.192,
            83.539,
            90.9,
            105.7,
            68.209,
            70.75,
            92.648,
            90.532,
            75.178,
            85.069,
            85.335,
            87.235,
            103.07,
            103.15,
            136.83,
            91.9,
            111.49,
            121.38,
            103.5,
            110.28,
            109.6,
            116.35,
            121.91,
            71.243,
            72.973,
            88.963,
            79.028,
            71.656,
            58.392,
            60.287,
            50.691,
            55.833,
            66.996,
            49.63,
            41.56,
            32.419,
            28.943,
            28.864,
            27.641,
            20.27,
            20.346,
            13.9,
            22.028,
            17.233,
            24.11,
            18.524,
            17.801,
            16.201,
            21.425,
            14.117,
            9.344,
            7.277,
            11.332,
            12.41,
            4.953,
            10.177,
            10.021,
            6.836,
            5.039,
            12.294,
            5.643,
            3.59,
            6.851,
            9.999,
            5.557,
            4.873,
            3.991,
            3.295,
            4.183,
            4.647,
            4.566,
            2.737,
            2.264,
            1.599,
            0.3,
            0.367,
            1.956,
            1.558,
            6.573,
            5.506,
            4.864,
            5.28,
            5.745,
            5.695,
            5.012,
            4.305,
            4.276,
            9.534,
            13.615,
            10.605,
            12.126,
            12.635,
            16.406,
            20.297,
            23.26,
            26.411,
            35.916,
            42.628,
            50.553,
            41.589,
            54.666,
            68.469,
            60.101,
            56.858,
            53.335,
            49.576,
            49.442,
            47.811,
            44.8,
            50.289,
            48.674,
            46.491,
            39.056,
            51.241,
            40.568,
            39.958,
            44.465,
            41.936,
            36.107,
            36.689,
            41.424,
            37.705,
            36.516,
            34.979,
            36.192,
            43.879,
            34.003,
            32.601,
            33.004,
            34.432,
            46.252,
            48.836,
            46.808,
            48.696,
            41.497,
            54.453,
            55.062,
            61.57,
            65.09,
            75.682,
            84.779,
            117.34,
            178.38,
            248.55,
            341.36,
            397.68,
            443.67,
            409.3,
            358.94,
            282.17,
            228.75,
            108.12,
            63.709,
            39.933,
            31.67,
            27.184,
            17.203,
            17.31,
            9.952,
            7.811,
            7.25,
            8.276,
            8.629,
            8.626,
            9.445,
            7.04,
            7.041,
            9.734,
            7.603,
            6.842,
            8.354,
            6.865,
            6.443,
            6.25,
            5.375,
            6.063,
            5.515,
            6.529,
            7.962,
            8.346,
            9.686,
            9.79,
            14.208,
            13.7,
            14.952,
            12.412,
            12.482,
            14.681,
            16.105,
            18.019,
            25.108,
            30.846,
            36.245,
            42.258,
            42.267,
            44.457,
            38.193,
            27.443,
            21.427,
            18.624,
            14.708,
            11.505,
            12.138,
            12.834,
            10.949,
            14.948,
            15.113,
            18.593,
            21.869,
            24.246,
            28.662,
            31.012,
            30.239,
            26.977,
            23.813,
            21.551,
            21.062,
            20.582,
            22.03,
            20.959,
            21.982,
            28.052,
            29.128,
            33.615,
            35.03,
            39.564,
            54.529,
            64.107,
            76.901,
            98.003,
            162.46,
            204.95,
            258.56,
            308.01,
            405.19,
            444.32,
            496.41,
            488.36,
            441.8,
            332.36,
            283.77,
            237.19,
            183.91,
            156.67,
            100.55,
            79.341,
            67.733,
            61.343,
            52.696,
            47.452,
            45.244,
            39.699,
            41.758,
            37.362,
            33.522,
            32.609,
            32.081,
            36.173,
            40.592,
            45.536,
            44.075,
            44.626,
            57.694,
            64.763,
            72.694,
            83.964,
            123.37,
            152.32,
            178.8,
            236.74,
            305.74,
            365.71,
            457.25,
            485.93,
            473.57,
            377.99,
            324.12,
            263.5,
            173.88,
            155.03,
            119.39,
            65.751,
            53.021,
            43.532,
            37.083,
            32.608,
            28.758,
            26.203,
            23.889,
            20.957,
            18.547,
            15.799,
            15.161,
            14.779,
            14.282,
            13.763,
            13.71,
            13.078,
            13.815,
            13.986,
            14.591,
            15.21,
            15.519,
            16.524,
            17.251,
            16.752,
            16.665,
            17.143,
            17.687,
            17.476,
            17.613,
            19.118,
            20.681,
            22.614,
            22.145,
            24.022,
            23.71,
            23.826,
            25.778,
            24.09,
            25.458,
            27.27,
            28.699,
            28.12,
            26.627,
            27.072,
            27.173,
            30.098,
            30.903,
            28.346,
            31.837,
            34.636,
            35.749,
            34.624,
            38.85,
            40.674,
            41.64,
            41.51,
            41.497,
            43.375,
            45.091,
            46.418,
            47.9,
            52.785,
            55.44,
            59.05,
            64.749,
            68.861,
            74.844,
            80.547,
            89.334,
            116.24,
            134.64,
            153.64,
            163.83,
            168.28,
            170.0,
            157.64,
            146.47,
            137.34,
            116.11,
            104.22,
            94.164,
            84.344,
            76.381,
            68.174,
            60.242,
            54.735,
            50.972,
            40.672,
            37.947,
            33.05,
            28.924,
            25.71,
            21.208,
            22.239,
            20.923,
            19.68,
            16.918,
            16.683,
            18.468,
            21.269,
            24.392,
            38.343,
            48.573,
            70.463,
            86.906,
            119.69,
            130.88,
            142.14,
            157.54,
            165.62,
            164.04,
            136.64,
            121.32,
            102.0,
            74.845,
            64.159,
            56.556,
            48.727,
            42.82,
            38.602,
            36.889,
            38.356,
            35.287,
            35.157,
            36.038,
            36.373,
            38.067,
            39.693,
            43.937,
            46.083,
            45.752,
            48.686,
            57.501,
            63.464,
            72.074,
            75.228,
            81.984,
            94.674,
            99.837,
            101.41,
            106.25,
            108.98,
            119.34,
            119.95,
            120.89,
            127.43,
            144.42,
            150.2,
            145.78,
            144.35,
            139.05,
            135.74,
            121.21,
            109.05,
            110.25,
            103.17,
            77.95,
            67.653,
            61.758,
            57.775,
            51.666,
            41.594,
            37.716,
            31.296,
            27.743,
            23.125,
            21.695,
            21.597,
            20.085,
            19.033,
            18.754,
            19.057,
            19.856,
            20.883,
            21.405,
            23.304,
            28.859,
            34.211,
            42.319,
            54.46,
            64.495,
            80.789,
            97.205,
            112.03,
            152.38,
            167.52,
            172.92,
            167.45,
            160.61,
            133.1,
            117.72,
            99.701,
            86.416,
            76.385,
            57.498,
            49.693,
            42.874,
            38.103,
            30.418,
            27.164,
            24.004,
            21.76,
            18.402,
            16.522,
            15.171,
            15.018,
            14.851,
            14.303,
            12.238,
            11.914,
            12.417,
            12.19,
            10.385,
            9.759,
            10.071,
            10.904,
            10.822,
            10.799,
            11.012,
            11.684,
            14.802,
            18.396,
            22.875,
            30.165,
            35.685,
            47.593,
            56.02,
            63.119,
            62.952,
            60.225,
            46.706,
            37.928,
            27.859,
            23.107,
            23.407,
            24.61,
            22.847,
            22.426,
            22.163,
            19.693,
            18.263,
            18.454,
            15.676,
            14.419,
            13.124,
            12.236,
            11.774,
            12.919,
            14.077,
            14.104,
            13.949,
            14.32,
            15.815,
            17.436,
            19.545,
            22.866,
            23.038,
            28.204,
            30.242,
            31.041,
            31.988,
            35.631,
            43.447,
            47.897,
            48.251,
            55.546,
            68.983,
            77.295,
            84.462,
            89.338,
            100.98,
            120.33,
            152.87,
            165.07,
            173.98,
            182.74,
            186.87,
            190.07,
            188.66,
            179.29,
            165.92,
            139.81,
            130.81,
            120.74,
            115.25,
            106.62,
            88.219,
            82.253,
            76.229,
            74.416,
            73.486,
            74.508,
            75.656,
            74.405,
            71.91,
            69.042,
            70.188,
            72.322,
            73.039,
            77.772,
            79.61,
            78.772,
            80.526,
            79.537,
            78.187,
            75.443,
            73.555,
            70.975,
            66.132,
            53.428,
            46.681,
            43.49,
            42.465,
            42.224,
            40.666,
            38.428,
            34.095,
            31.885,
            30.074,
            31.27,
            29.977,
            29.245,
            28.538,
            26.297,
            24.287,
            23.338,
            20.811,
            20.613,
            19.651,
            19.007,
            18.881,
            19.471,
            17.492,
            17.271,
            17.389,
            17.068,
            14.866,
            14.606,
            14.397,
            14.089,
            14.691,
            13.925,
            13.573,
            14.018,
            13.835,
            13.649,
            14.226,
            14.946,
            16.223,
            15.842,
            17.429,
            18.803,
            21.134,
            21.93,
            24.492,
            25.339,
            27.552,
            29.122,
            29.761,
            28.761,
            26.97,
            25.604,
            24.905,
            22.505,
            20.127,
            20.648,
            20.457,
            21.008,
            25.097,
            29.477,
            31.623,
            29.149,
            28.967,
            31.006,
            33.839,
            39.581,
            41.631,
            46.306,
            53.774,
            64.476,
            75.406,
            82.177,
            85.525,
            88.445,
            89.446,
            76.19,
            57.92,
            49.703,
            39.827,
            31.486,
            23.621,
            21.408,
            19.643,
            17.401,
            16.32,
            15.029,
            14.794,
            13.797,
            14.05,
            16.305,
            16.479,
            15.575,
            17.334,
            18.894,
            21.249,
            21.606,
            21.565,
            21.519,
            21.697,
            21.432,
            20.996,
            19.793,
            18.46,
            17.516,
            15.956,
            13.854,
            12.549,
            11.565,
            10.677,
            9.482,
            8.809,
            7.895,
            7.649,
            7.479,
            7.981,
            9.073,
            10.321,
            11.787,
            12.96,
            16.128,
            17.954,
            20.206,
            22.684,
            26.516,
            29.574,
            32.502,
            32.745,
            32.351,
            31.135,
            29.965,
            27.708,
            24.446,
            19.749,
            16.873,
            13.256,
            12.111,
            11.731,
            11.616,
            10.634,
            10.242,
            10.737,
            11.735,
            15.098,
            16.952,
            19.131,
            22.26,
            25.818,
            29.483,
            31.424,
            34.514,
            33.604,
            30.619,
            26.633,
            23.029,
            19.897,
            15.165,
            12.315,
            13.64,
            14.395,
            15.249,
            16.282,
            19.072,
            20.202,
            24.055,
            26.668,
            29.859,
            34.076,
            38.347,
            43.125,
            46.056,
            48.068,
            51.151,
            53.116,
            52.698,
            49.862,
            45.507,
            36.758,
            32.88,
            28.58,
            24.052,
            20.514,
            18.839,
            18.522,
            18.659,
            19.412,
            20.335,
            21.591,
            24.88,
            27.62,
            33.505,
            37.615,
            46.021,
            50.496,
            56.102,
            64.939,
            72.2,
            76.748,
            82.13,
            87.111,
            88.746,
            95.794,
            95.652,
            97.026,
            98.493,
            96.961,
            90.632,
            81.217,
            57.581,
            46.419,
            38.728,
            30.138,
            29.315,
            29.768,
            32.116,
            34.185,
            38.473,
            44.47,
            50.88,
            59.078,
            68.644,
            80.107,
            91.273,
            100.48,
            108.31,
            119.2,
            119.07,
            108.98,
            90.861,
            74.988,
            61.71,
            50.842,
            39.028,
            34.907,
            28.671,
            25.105,
            22.885,
            20.615,
            18.786,
            17.161,
            16.418,
            16.267,
            15.975,
            15.346,
            14.867,
            14.125,
            13.859,
            14.057,
            15.144,
            16.202,
            16.565,
            17.338,
            18.969,
            21.196,
            23.086,
            26.282,
            30.678,
            36.736,
            43.572,
            51.118,
            62.049,
            74.047,
            83.098,
            67.904,
            50.39,
            36.692,
            26.458,
            18.807,
            13.075,
            9.19,
            7.549,
            6.809,
            5.767,
            5.174,
            5.113,
            5.093,
            4.872,
            4.87,
            5.007,
            5.003,
            4.998,
            4.92,
            4.765,
            4.826,
            4.828,
            4.804,
            4.852,
            4.989,
            5.036,
            5.319,
            5.914,
            6.222,
            6.616,
            7.309,
            7.713,
            8.027,
            8.626,
            9.811,
            11.347,
            13.026,
            14.869,
            16.917,
            19.765,
            22.4,
            26.445,
            31.239,
            36.444,
            42.289,
            47.406,
            57.12,
            67.226,
            70.497,
            74.403,
            71.56,
            67.158,
            57.172,
            47.439,
            40.178,
            35.557,
            31.262,
            27.321,
            23.752,
            19.066,
            16.247,
            13.951,
            11.863,
            10.183,
            9.594,
            9.319,
            8.297,
            7.458,
            7.758,
            7.023,
            6.948,
            6.816,
            6.535,
            5.969,
            5.763,
            6.165,
            6.221,
            6.057,
            5.87,
            5.917,
            6.037,
            6.244,
            6.59,
            7.337,
            8.523,
            8.981,
            8.916,
            8.963,
            9.265,
            9.492,
            11.141,
            12.695,
            13.194,
            14.94,
            17.284,
            16.755,
            18.734,
            21.227,
            23.928,
            25.925,
            30.876,
            36.173,
            43.218,
            49.269,
            63.525,
            76.464,
            89.413,
            103.02,
            114.69,
            126.79,
            147.7,
            152.8,
            160.35,
            161.68,
            134.17,
            109.93,
            93.478,
            79.66,
            65.395,
            56.011,
            48.562,
            42.559,
            39.361,
            40.845,
            42.456,
            43.723,
            46.945,
            49.636,
            57.174,
            63.807,
            71.545,
            78.536,
            84.415,
            95.904,
            108.38,
            116.27,
            120.67,
            124.79,
            133.3,
            136.17,
            136.1,
            135.33,
            133.07,
            115.66,
            103.2,
            92.602,
            79.845,
            67.859,
            59.693,
            51.789,
            47.556,
            42.742,
            36.583,
            32.921,
            31.325,
            30.775,
            30.79,
            30.919,
            31.814,
            33.493,
            34.299,
            34.458,
            34.286,
            34.12,
            35.018,
            35.75,
            36.335,
            37.795,
            37.738,
            38.595,
            40.381,
            40.82,
            40.56,
            41.584,
            44.16,
            46.415,
            48.325,
            55.041,
            61.729,
            63.661,
            62.588,
            60.361,
            53.021,
            45.993,
            40.02,
            33.111,
            27.151,
            22.505,
            19.499,
            16.585,
            14.947,
            13.968,
            13.171,
            12.812,
            12.687,
            13.064,
            14.458,
            16.175,
            18.367,
            21.212,
            23.818,
            26.11,
            28.102,
            29.116,
            28.076,
            24.784,
            22.721,
            20.435,
            18.218,
            17.312,
            17.563,
            18.068,
            19.363,
            19.303,
            18.459,
            18.292,
            19.997,
            21.588,
            22.39,
            24.628,
            27.837,
            32.023,
            30.6,
            26.307,
            23.727,
            21.665,
            19.813,
            19.826,
            20.884,
            22.691,
            25.07,
            27.505,
            30.396,
            33.776,
            35.977,
            38.707,
            40.276,
            40.963,
            42.18,
            45.682,
            50.783,
            53.886,
            58.943,
            66.049,
            76.477,
            92.648,
            112.56,
            130.2,
            144.79,
            170.19,
            193.86,
            208.7,
            212.44,
            214.19,
            214.08,
            207.27,
            189.74,
            174.64,
            152.6,
            130.92,
            105.51,
            83.316,
            70.08,
            66.135,
            69.497,
            84.694,
            104.78,
            123.04,
            143.52,
            162.77,
            170.97,
            171.66,
            156.91,
            128.19,
            104.02,
            83.32,
            64.334,
            52.38,
            45.121,
            35.119,
            31.298,
            27.26,
            25.131,
            24.252,
            25.557,
            28.849,
            30.271,
            34.776,
            37.385,
            42.196,
            46.439,
            48.324,
            49.668,
            49.528,
            42.295,
            31.377,
            22.991,
            20.057,
            16.957,
            14.314,
            12.959,
            12.817,
            12.824,
            12.889,
            13.451,
            13.49,
            14.041,
            15.746,
            16.005,
            16.32,
            15.919,
            16.026,
            16.358,
            16.521,
            16.894,
            17.94,
            18.901,
            19.985,
            21.311,
            23.9,
            26.152,
            30.549,
            36.826,
            38.396,
            40.394,
            47.336,
            56.931,
            69.31,
            98.611,
            120.55,
            152.31,
            193.85,
            251.34,
            301.86,
            345.02,
            378.16,
            396.82,
            378.86,
            325.31,
            260.56,
            187.35,
            140.85,
            115.69,
            99.192,
            90.083,
            83.919,
            84.365,
            85.771,
            88.878,
            98.65,
            110.63,
            125.81,
            141.67,
            145.66,
            140.57,
            124.68,
            113.25,
            115.17,
            117.54,
            126.12,
            138.3,
            150.73,
            146.37,
            124.47,
            109.3,
            92.452,
            73.095,
            59.019,
            46.138,
            38.199,
            33.245,
            29.074,
            25.414,
            22.459,
            20.51,
            17.897,
            17.383,
            17.358,
            18.399,
            18.659,
            20.74,
            24.822,
            28.635,
            31.806,
            36.449,
            37.531,
            39.408,
            45.373,
            45.042,
            45.147,
            46.168,
            48.972,
            50.894,
            54.523,
            62.954,
            74.76,
            87.83,
            100.23,
            108.19,
            100.74,
            80.748,
            64.628,
            51.64,
            42.848,
            41.28,
            45.172,
            51.274,
            59.003,
            67.213,
            79.112,
            90.068,
            104.6,
            115.76,
            119.67,
            112.91,
            99.618,
            80.598,
            71.765,
            58.548,
            47.872,
            40.823,
            34.311,
            28.907,
            25.09,
            21.655,
            17.727,
            14.562,
            12.908,
            11.822,
            12.686,
            13.694,
            14.668,
            16.016,
            17.066,
            18.642,
            19.179,
            20.402,
            24.322,
            30.282,
            35.565,
            42.004,
            51.865,
            55.606,
            53.058,
            40.128,
            31.612,
            23.186,
            20.16,
            21.494,
            24.001,
            27.201,
            30.929,
            33.066,
            35.297,
            44.392,
            59.215,
            76.288,
            92.272,
            116.41,
            135.17,
            154.15,
            154.5,
            134.98,
            99.298,
            70.761,
            51.714,
            36.657,
            27.033,
            21.589,
            19.259,
            18.205,
            18.484,
            20.076,
            22.85,
            23.489,
            24.007,
            23.728,
            20.971,
            17.128,
            14.025,
            11.698,
            11.168,
            11.158,
            11.552,
            12.601,
            12.654,
            11.288,
            9.545,
            8.576,
            8.97,
            10.197,
            12.525,
            15.774,
            18.913,
            20.504,
            20.258,
            17.925,
            14.878,
            12.622,
            12.759,
            13.528,
            15.683,
            18.221,
            19.899,
            23.758,
            28.768,
            31.53,
            36.046,
            41.313,
            44.401,
            49.533,
            52.248,
            57.472,
            63.048,
            70.247,
            75.095,
            75.265,
            67.473,
            58.393,
            47.185,
            39.372,
            35.485,
            34.501,
            35.263,
            37.149,
            39.223,
            42.255,
            46.465,
            51.862,
            54.541,
            57.488,
            60.732,
            65.257,
            70.163,
            72.301,
            73.6,
            72.46,
            70.635,
            60.636,
            54.858,
            49.013,
            48.001,
            50.511,
            51.113,
            48.856,
            44.767,
            42.106,
            45.719,
            50.64,
            55.018,
            59.217,
            66.015,
            75.72,
            82.554,
            89.139,
            99.514,
            116.83,
            132.47,
            154.05,
            182.84,
            207.78,
            233.52,
            232.1,
            134.37,
            90.7,
            58.834,
            46.259,
            41.272,
            39.826,
            39.163,
            34.029,
            31.405,
            27.537,
            24.387,
            28.101,
            30.074,
            32.954,
            34.352,
            43.141,
            48.577,
            53.736,
            57.832,
            67.254,
            78.323,
            88.629,
            98.678,
            105.64,
            107.51,
            103.33,
            71.189,
            43.503,
            29.29,
            21.736,
            14.892,
            11.619,
            10.19,
            9.5,
            9.618,
            9.881,
            10.013,
            11.173,
            12.65,
            13.779,
            15.585,
            17.418,
            17.845,
            17.924,
            16.516,
            14.37,
            14.067,
            15.032,
            14.597,
            14.688,
            14.688,
            15.686,
            17.419,
            18.629,
            20.058,
            20.736,
            21.176,
            23.128,
            27.604,
            33.681,
            42.038,
            51.677,
            57.187,
            55.836,
            43.951,
            30.853,
            19.28,
            12.987,
            10.419,
            9.906,
            10.7,
            12.004,
            13.722,
            15.267,
            17.242,
            21.016,
            24.179,
            26.624,
            25.371,
            26.902,
            28.991,
            30.679,
            33.017,
            37.984,
            49.121,
            61.209,
            73.983,
            84.54,
            93.377,
            99.09,
            99.866,
            88.03,
            80.604,
            85.167,
            92.507,
            99.53,
            105.56,
            112.1,
            115.03,
            112.94,
            98.652,
            77.763,
            59.822,
            42.609,
            31.354,
            23.583,
            20.095,
            18.051,
            15.456,
            11.254,
            8.165,
            6.847,
            6.89,
            7.639,
            8.084,
            8.647,
            9.728,
            11.325,
            12.995,
            15.388,
            17.193,
            18.589,
            19.6,
            17.986,
            15.927,
            14.847,
            14.873,
            16.561,
            20.513,
            25.147,
            30.211,
            34.741,
            39.348,
            37.007,
            33.609,
            31.097,
            28.763,
            26.641,
            27.196,
            28.83,
            31.67,
            35.34,
            37.33,
            38.476,
            37.44,
            33.532,
            27.156,
            22.393,
            20.533,
            20.679,
            21.32,
            23.2,
            25.445,
            27.146,
            26.712,
            24.842,
            23.525,
            23.895,
            25.117,
            27.412,
            31.53,
            35.38,
            40.543,
            45.818,
            48.553,
            49.761,
            47.722,
            42.156,
            36.542,
            29.805,
            25.417,
            22.326,
            20.22,
            18.889,
            18.578,
            17.196,
            18.439,
            21.718,
            26.323,
            30.835,
            33.24,
            35.418,
            37.927,
            37.681,
            34.899,
            34.089,
            35.905,
            43.604,
            49.98,
            54.647,
            57.006,
            52.078,
            49.831,
            52.877,
            59.403,
            64.817,
            68.342,
            74.054,
            80.913,
            91.91,
            104.75,
            114.1,
            107.43,
            81.072,
            49.665,
            39.324,
            39.437,
            40.4,
            39.383,
            37.376,
            36.083,
            40.771,
            45.14,
            48.567,
            51.511,
            52.604,
            51.307,
            42.783,
            32.27,
            29.636,
            30.426,
            27.36,
            27.935,
            30.657,
            35.298,
            38.752,
            39.823,
            38.428,
            35.688,
            32.029,
            32.191,
            34.943,
            37.93,
            41.663,
            45.549,
            46.758,
            48.716,
            48.775,
            43.437,
            36.96,
            29.167,
            22.326,
            21.027,
            21.129,
            21.197,
            21.166,
            21.216,
            20.814,
            20.124,
            16.285,
            13.436,
            11.903,
            11.111,
            10.014,
            9.162,
            8.311,
            7.764,
            7.33,
            7.133,
            6.769,
            6.874,
            7.884,
            9.625,
            11.552,
            13.286,
            14.962,
            16.536,
            18.157,
            20.037,
            20.732,
            21.605,
            21.863,
            21.784,
            21.893,
            21.777,
            20.445,
            15.191,
            10.807,
            9.514,
            10.302,
            11.477,
            12.223,
            12.48,
            12.751,
            11.213,
            8.784,
            8.142,
            8.387,
            9.13,
            10.705,
            13.058,
            15.381,
            19.123,
            22.618,
            25.634,
            29.995,
            32.732,
            28.836,
            22.721,
            19.606,
            19.584,
            20.989,
            22.775,
            25.11,
            29.52,
            29.029,
            26.138,
            20.057,
            14.005,
            9.465,
            7.89,
            7.127,
            7.122,
            7.497,
            8.058,
            8.818,
            9.675,
            10.473,
            10.771,
            11.293,
            12.066,
            13.919,
            16.226,
            18.035,
            20.627,
            24.221,
            29.676,
            34.543,
            40.719,
            45.265,
            50.563,
            56.2,
            56.808,
            55.247,
            58.239,
            63.601,
            61.516,
            51.794,
            49.442,
            47.876,
            28.846,
            13.897,
            14.291,
            15.009,
            16.903,
            19.141,
            21.24,
            22.401,
            23.39,
            23.602,
            22.651,
            21.037,
            18.282,
            15.427,
            11.837,
            10.438,
            10.659,
            11.615,
            12.594,
            14.104,
            15.273,
            18.777,
            22.439,
            26.034,
            29.148,
            31.865,
            30.262,
            21.972,
            17.754,
            18.302,
            19.482,
            20.643,
            21.445,
            22.458,
            23.905,
            23.023,
            22.283,
            22.45,
            24.58,
            27.075,
            28.921,
            29.437,
            29.991,
            32.942,
            35.641,
            39.322,
            43.032,
            45.066,
            50.327,
            51.334,
            49.482,
            42.137,
            39.232,
            37.712,
            34.014,
            29.387,
            26.379,
            28.223,
            28.497,
            25.607,
            26.176,
            27.09,
            22.169,
            17.812,
            15.347,
            15.415,
            17.592,
            18.674,
            20.822,
            23.642,
            27.312,
            28.267,
            25.731,
            24.492,
            22.001,
            15.2,
            13.003,
            13.535,
            14.954,
            16.504,
            17.829,
            19.265,
            20.92,
            20.833,
            21.759,
            23.389,
            22.291,
            20.602,
            20.06,
            18.948,
            16.425,
            14.497,
            14.235,
            13.753,
            13.077,
            13.53,
            15.28,
            16.538,
            17.897,
            19.466,
            22.92,
            25.916,
            26.604,
            25.496,
            25.146,
            25.204,
            25.254,
            27.957,
            30.227,
            34.72,
            44.37,
            45.142,
            29.837,
            19.728,
            19.786,
            20.784,
            19.87,
            20.998,
            22.478,
            24.269,
            26.291,
            28.625,
            30.366,
            32.736,
            33.878,
            37.476,
            40.607,
            46.201,
            53.629,
            51.346,
            40.06,
            34.562,
            33.841,
            28.194,
            26.444,
            28.703,
            31.412,
            35.566,
            37.454,
            29.802,
            19.142,
            14.513,
            13.364,
            12.042,
            10.55,
            8.977,
            8.72,
            8.427,
            5.858,
            5.559,
            6.115,
            7.142,
            7.853,
            8.56,
            9.404,
            10.525,
            12.863,
            14.435,
            15.153,
            15.801,
            17.189,
            18.644,
            17.342,
            13.154,
            11.14,
            12.164,
            14.056,
            15.015,
            17.434,
            18.294,
            17.256,
            16.513,
            18.226,
            18.962,
            19.142,
            20.563,
            21.896,
            22.394,
            23.078,
            23.796,
            24.73,
            24.051,
            20.419,
            18.266,
            17.738,
            18.032,
            20.407,
            21.304,
            20.317,
            21.021,
            23.373,
            24.249,
            23.93,
            22.812,
            24.394,
            25.327,
            24.617,
            24.574,
            24.694,
            24.664,
            22.273,
            16.406,
            13.888,
            12.086,
            11.884,
            13.01,
            14.088,
            14.997,
            15.352,
            14.651,
            13.55,
            12.414,
            13.796,
            16.107,
            18.508,
            21.681,
            31.222,
            33.334,
            28.202,
            33.848,
            35.23,
            27.876,
            21.087,
            23.489,
            29.904,
            32.399,
            31.465,
            34.916,
            40.339,
            44.099,
            41.978,
            33.623,
            27.944,
            28.66,
            32.552,
            35.191,
            37.923,
            41.542,
            45.096,
            47.266,
            41.065,
            27.271,
            22.994,
            22.615,
            25.499,
            27.739,
            23.507,
            19.373,
            22.134,
            27.315,
            24.933,
            25.121,
            26.729,
            30.462,
            41.124,
            44.413,
            32.825,
            28.153,
            29.629,
            30.667,
            29.301,
            26.58,
            27.756,
            20.293,
            15.673,
            17.337,
            21.171,
            23.698,
            23.821,
            28.46,
            34.821,
            28.832,
            26.802,
            19.457,
            16.856,
            18.334,
            16.441,
            20.665,
            23.164,
            17.468,
            17.471,
            21.73,
            26.671,
            28.754,
            21.303,
            14.324,
            11.906,
            14.859,
            18.129,
            11.06,
            14.384,
            19.268,
            17.346,
            18.017,
            24.006,
            25.739,
            18.121,
            9.76,
            8.34,
            9.912,
            14.031,
            20.021,
            17.666,
            19.637,
            18.033,
            13.322,
            14.972,
            16.508,
            20.394,
            24.259,
            26.123,
            19.396,
            10.863,
            10.865,
            14.759,
            17.147,
            14.153,
            15.808,
            18.086,
            15.865,
            13.33,
            11.608,
            13.242,
            13.964,
            12.015,
            10.714,
            11.866,
            12.445,
            13.179,
            13.939,
            14.297,
            16.206,
            16.485,
            16.022,
            14.955,
            13.934,
            15.376,
            16.216,
            14.149,
            13.686,
            16.173,
            21.696,
            23.804,
            20.254,
            17.579,
            15.651,
            14.628,
            13.941,
            13.427,
            14.65,
            19.362,
            17.402,
            21.058,
            26.84,
            27.596,
            31.075,
            32.912,
            28.761,
            20.568,
            14.491,
            13.939,
            14.431,
            16.48,
            19.641,
            21.189,
            18.985,
            10.866,
            8.338,
            8.575,
            10.07,
            14.812,
            21.199,
            20.103,
            15.767,
            13.215,
            12.78,
            14.153,
            16.503,
            19.966,
            23.842,
            26.507,
            26.969,
            19.997,
            14.06,
            14.229,
            14.391,
            13.312,
            14.645,
            17.739,
            15.864,
            12.661,
            11.593,
            12.432,
            15.239,
            17.389,
            17.344,
            13.054,
            10.469,
            14.985,
            26.961,
            36.279,
            31.774,
            16.185,
            11.076,
            12.501,
            11.354,
            9.081,
            10.713,
            13.97,
            16.49,
            17.126,
            16.704,
            14.711,
            16.34,
            18.958,
            21.426,
            25.84,
            26.475,
            17.985,
            13.143,
            14.971,
            23.605,
            30.363,
            27.162,
            18.364,
            15.371,
            17.215,
            18.346,
            19.681,
            23.508,
            27.022,
            24.76,
            11.873,
            8.171,
            8.684,
            7.025,
            6.511,
            8.55,
            12.081,
            13.219,
            9.721,
            11.785,
            14.014,
            10.077,
            14.963,
            16.797,
            12.028,
            12.552,
            18.94,
            15.675,
            11.093,
            10.935,
            10.562,
            10.046,
            10.602,
            11.034,
            12.503,
            14.616,
            17.562,
            21.633,
            23.417,
            18.819,
            11.48,
            10.984,
            16.979,
            37.092,
            30.396,
            11.998,
            13.608,
            12.504,
            10.303,
            10.641,
            13.601,
            19.123,
            17.478,
            12.438,
            15.014,
            15.603,
            15.517,
            19.828,
            13.065,
            26.215,
            28.033,
            18.209,
            18.132,
            15.063,
            16.121,
            18.725,
            20.936,
            18.2,
            14.179,
            16.75,
            27.196,
            16.871,
            16.684,
            15.901,
            11.683,
            8.878,
            12.582,
            16.267,
            18.382,
            8.868,
            7.543,
            11.546,
            13.562,
            8.479,
            6.55,
            8.994,
            14.143,
            17.153,
            11.66,
            9.908,
            9.74,
            11.315,
            14.981,
            12.787,
            11.369,
            14.27,
            14.358,
            13.345,
            12.618,
            15.896,
            22.564,
            21.33,
            28.068,
            33.128,
            23.799,
            16.321,
            10.365,
            9.457,
            12.036,
            18.904,
            24.632,
            17.224,
            12.467,
            19.594,
            20.523,
            13.512,
            16.482,
            19.863,
            23.87,
            19.272,
            9.669,
            8.636,
            12.487,
            16.75,
            12.356,
            12.688,
            15.791,
            17.249,
            14.445,
            11.099,
            11.167,
            13.449,
            15.526,
            11.452,
            9.846,
            11.797,
            15.06,
            17.94,
            18.432,
            15.528,
            13.771,
            14.598,
            16.652,
            21.261,
            24.009,
            21.377,
            23.42,
            25.917,
            22.652,
            16.035,
            14.588,
            16.461,
            21.322,
            26.856,
            16.761,
            16.331,
            14.643,
            12.264,
            10.402,
            12.506,
            17.144,
            19.793,
            14.178,
            13.457,
            16.873,
            21.274,
            23.133,
            18.859,
            13.831,
            13.392,
            15.692,
            14.034,
            14.072,
            18.421,
            18.101,
            14.104,
            13.698,
            15.322,
            14.349,
            12.597,
            9.819,
            9.611,
            12.883,
            14.107,
            12.715,
            11.362,
            10.563,
            15.022,
            22.475,
            16.912,
            13.967,
            12.716,
            13.798,
            14.279,
            9.851,
            10.171,
            13.904,
            14.051,
            12.489,
            12.813,
            11.295,
            10.828,
            11.859,
            13.719,
            14.881,
            14.488,
            12.523,
            9.467,
            10.189,
            14.977,
            19.74,
            21.661,
            16.464,
            16.151,
            19.064,
            15.885,
            17.592,
            17.867,
            15.464,
            17.73,
            16.233,
            16.968,
            16.66,
            15.217,
            12.22,
            10.38,
            11.699,
            14.01,
            13.353,
            13.316,
            14.423,
            13.254,
            13.328,
            14.816,
            16.335,
            16.513,
            14.88,
            14.786,
            14.243,
            13.921,
            13.25,
            13.147,
            13.261,
            14.235,
            16.81,
            20.335,
            13.88,
            12.684,
            11.711,
            11.413,
            10.593,
            9.682,
            10.828,
            13.663,
            16.362,
            12.086,
            10.948,
            11.678,
            12.397,
            12.648,
            11.252,
            10.56,
            10.277,
            10.849,
            11.335,
            11.319,
            9.872,
            8.715,
            7.949,
            8.384,
            11.097,
            11.184,
            10.122,
            10.922,
            11.391,
            10.472,
            11.206,
            12.723,
            14.83,
            16.525,
            16.214,
            14.319,
            12.274,
            12.45,
            14.622,
            15.132,
            12.023,
            11.021,
            13.222,
            15.624,
            15.213,
            12.966,
            11.837,
            14.155,
            13.548,
            12.415,
            12.931,
            13.087,
            12.48,
            9.812,
            10.257,
            10.947,
            11.056,
            10.778,
            10.877,
            12.022,
            12.918,
            13.578,
            15.485,
            11.157,
            9.761,
            9.204,
            9.142,
            10.802,
            11.173,
            12.086,
            13.837,
            14.866,
            15.748,
            14.443,
            12.409,
            10.797,
            12.067,
            12.916,
            13.495,
            13.272,
            10.456,
            9.153,
            10.031,
            9.803,
            10.116,
            10.457,
            9.736,
            11.038,
            10.675,
            8.862,
            8.388,
            9.105,
            9.667,
            10.978,
            12.461,
            13.08,
            12.432,
            10.637,
            10.175,
            10.729,
            11.159,
            10.423,
            7.883,
            8.919,
            9.801,
            11.374,
            11.97,
            11.694,
            12.306,
            12.275,
            10.749,
            10.342,
            11.699,
            13.586,
            13.746,
            12.972,
            11.843,
            10.845,
            11.137,
            11.756,
            12.592,
            12.2,
            11.694,
            11.161,
            10.131,
            9.674,
            9.519,
            8.25,
            8.381,
            9.29,
            8.796,
            7.325,
            8.412,
            9.404,
            9.04,
            9.12,
            10.586,
            12.059,
            13.027,
            12.278,
            10.729,
            10.293,
            10.663,
            10.122,
            9.69,
            10.297,
            11.221,
            11.256,
            10.433,
            8.807,
            8.05,
            8.159,
            8.189,
            7.847,
            7.55,
            7.34,
            7.43,
            8.171,
            8.464,
            8.458,
            8.769,
            8.795,
            8.635,
            8.944,
            9.833,
            11.553,
            10.281,
            7.271,
            7.409,
            8.292,
            9.044,
            9.648,
            10.26,
            9.743,
            8.085,
            7.293,
            6.906,
            7.093,
            7.365,
            8.571,
            9.731,
            10.5,
            10.838,
            10.762,
            9.975,
            8.822,
            7.662,
            7.797,
            8.402,
            8.36,
            7.618,
            7.518,
            8.149,
            8.076,
            8.495,
            9.095,
            9.473,
            8.526,
            7.424,
            7.003,
            7.077,
            7.364,
            7.98,
            8.241,
            8.504,
            7.552,
            6.373,
            5.958,
            6.439,
            6.981,
            6.595,
            6.558,
            6.959,
            7.502,
            7.065,
            7.439,
            8.219,
            7.787,
            7.211,
            7.892,
            8.481,
            8.382,
            7.889,
            7.039,
            7.036,
            6.535,
            6.045,
            5.923,
            6.201,
            6.709,
            7.044,
            7.288,
            7.339,
            7.055,
            6.602,
            6.361,
            6.039,
            5.14,
            4.865,
            5.194,
            5.166,
            5.354,
            5.607,
            5.557,
            5.602,
            5.765,
            5.679,
            5.975,
            6.335,
            6.628,
            6.744,
            6.927,
            7.029,
            6.838,
            6.712,
            6.6,
            6.225,
            5.624,
            5.683,
            5.938,
            5.65,
            5.78,
            5.704,
            5.691,
            5.554,
            5.679,
            5.404,
            4.815,
            5.074,
            6.266,
            5.823,
            5.195,
            5.106,
            5.361,
            5.338,
            5.184,
            5.055,
            4.897,
            4.999,
            5.209,
            5.318,
            5.317,
            5.307,
            5.713,
            5.896,
            5.833,
            5.565,
            5.321,
            5.273,
            5.443,
            5.563,
            5.474,
            5.38,
            5.364,
            5.064,
            5.086,
            5.118,
            4.986,
            4.983,
            5.18,
            5.16,
            5.074,
            5.298,
            5.75,
            5.308,
            4.761,
            4.729,
            4.718,
            4.356,
            4.459,
            4.582,
            4.652,
            4.927,
            5.056,
            5.098,
            4.97,
            5.137,
            4.875,
            4.555,
            4.332,
            4.402,
            4.483,
            4.344,
            4.429,
            4.612,
            4.67,
            4.583,
            4.398,
            4.437,
            4.379,
            4.336,
            4.253,
            4.206,
            4.237,
            4.184,
            4.104,
            4.118,
            4.125,
            4.185,
            4.174,
            4.214,
            4.11,
            4.145,
            3.91,
            3.844,
            4.201,
            4.288,
            4.119,
            4.015,
            4.016,
            3.899,
            3.929,
            3.838,
            3.928,
            3.877,
            3.74,
            3.658,
            3.639,
            3.733,
            3.946,
            3.942,
            3.736,
            3.666,
            3.466,
            3.352,
            3.314,
            3.456,
            3.362,
            3.082,
            3.181,
            3.266,
            3.345,
            3.382,
            3.391,
            3.132,
            2.76,
            2.391,
            2.26,
            2.93,
            3.731,
            3.786,
            3.303,
            3.262,
            3.019,
            2.958,
            3.285,
            3.305,
            3.122,
            3.105,
            3.076,
            3.081,
            3.129,
            3.252,
            3.301,
            3.329,
            3.185,
            2.992,
            2.943,
            2.876,
            2.893,
            2.973,
            3.004,
            2.892,
            2.893,
            2.873,
            2.618,
            2.888,
            3.375,
            3.305,
            3.003,
            2.972,
            2.948,
            2.824,
            2.901,
            2.893,
            2.765,
            2.605,
            2.801,
            2.997,
            2.921,
            2.707,
            2.685,
            2.733,
            2.844,
            2.981,
            3.043,
            2.906,
            2.68,
            2.652,
            2.61,
            2.574,
            2.552,
            2.53,
            2.518,
            2.352,
            2.4,
            2.432,
            2.482,
            2.522,
            2.581,
            2.595,
            2.548,
            2.417,
            2.425,
            2.429,
            2.353,
            2.285,
            2.184,
            2.332
          ],
          [
            101.6,
            43.7,
            52.1,
            63.2,
            53.3,
            44.5,
            50.0,
            55.1,
            66.0,
            46.3,
            41.9,
            52.1,
            51.8,
            53.2,
            62.5,
            50.8,
            48.0,
            63.3,
            236.3,
            330.4,
            75.6,
            177.9,
            211.1,
            110.1,
            105.0,
            116.8,
            151.3,
            89.7,
            69.1,
            47.3,
            41.9,
            51.6,
            67.1,
            35.1,
            32.4,
            27.0,
            38.0,
            29.3,
            23.0,
            33.4,
            42.0,
            22.8,
            26.2,
            21.5,
            15.5,
            15.6,
            17.8,
            13.4,
            13.3,
            31.7,
            25.3,
            32.4,
            34.0,
            20.8,
            18.9,
            21.0,
            19.3,
            16.3,
            23.6,
            20.8,
            26.4,
            32.7,
            24.9,
            24.4,
            28.3,
            30.5,
            38.0,
            21.7,
            29.7,
            56.1,
            31.4,
            25.2,
            47.5,
            64.1,
            41.8,
            35.7,
            37.2,
            62.7,
            62.1,
            35.7,
            32.4,
            30.8,
            47.7,
            54.0,
            52.8,
            89.0,
            50.9,
            57.3,
            105.5,
            59.8,
            38.4,
            29.3,
            32.6,
            38.8,
            26.6,
            21.5,
            23.1,
            37.9,
            27.4,
            28.8,
            19.9,
            29.9,
            30.2,
            28.8,
            28.0,
            24.8,
            46.3,
            39.2,
            21.3,
            17.3,
            16.5,
            18.3,
            17.5,
            25.7,
            15.0,
            17.5,
            27.0,
            21.7,
            20.0,
            18.2,
            16.0,
            24.2,
            21.2,
            15.5,
            18.7,
            22.1,
            25.8,
            21.8,
            56.6,
            30.6,
            25.9,
            23.2,
            22.0,
            26.0,
            33.7,
            35.8,
            30.3,
            35.9,
            39.1,
            57.9,
            41.2,
            64.5,
            30.8,
            41.8,
            46.3,
            46.2,
            31.3,
            43.4,
            96.8,
            99.6,
            50.1,
            40.6,
            99.1,
            64.9,
            57.5,
            66.8,
            99.4,
            52.4,
            111.6,
            126.8,
            70.1,
            55.7,
            134.7,
            107.9,
            102.2,
            116.5,
            95.7,
            106.8,
            105.4,
            121.7,
            164.9,
            273.2,
            11348.2,
            920.9,
            163.0,
            216.2,
            71.2,
            78.8,
            63.8,
            59.8,
            61.8,
            76.2,
            75.7,
            69.5,
            76.8,
            47.8,
            43.6,
            36.0,
            29.1,
            34.4,
            30.7,
            27.7,
            20.3,
            22.1,
            16.4,
            28.5,
            15.6,
            12.9,
            13.6,
            21.9,
            14.6,
            11.9,
            12.3,
            14.3,
            15.2,
            13.6,
            12.0,
            12.1,
            15.1,
            19.7,
            13.8,
            12.8,
            12.8,
            15.0,
            15.1,
            15.5,
            13.2,
            13.7,
            14.9,
            15.7,
            13.2,
            14.1,
            15.8,
            14.4,
            13.2,
            12.7,
            13.4,
            15.7,
            14.3,
            11.0,
            11.8,
            13.7,
            14.6,
            12.6,
            10.5,
            10.8,
            13.0,
            12.5,
            13.9,
            14.7,
            11.4,
            14.5,
            12.0,
            9.9,
            8.6,
            9.9,
            11.3,
            11.0,
            11.2,
            15.1,
            21.6,
            14.4,
            12.6,
            15.7,
            16.8,
            30.4,
            25.6,
            22.2,
            23.1,
            24.4,
            27.3,
            26.2,
            19.2,
            24.6,
            28.3,
            24.7,
            23.0,
            21.7,
            23.4,
            29.7,
            28.0,
            25.2,
            25.0,
            29.7,
            33.1,
            25.6,
            20.8,
            21.6,
            34.5,
            22.6,
            18.0,
            15.1,
            15.2,
            25.8,
            18.5,
            14.7,
            13.7,
            14.9,
            19.3,
            12.9,
            10.6,
            11.0,
            12.9,
            12.8,
            11.5,
            15.4,
            14.2,
            15.7,
            17.7,
            15.0,
            15.4,
            24.3,
            19.3,
            13.9,
            12.4,
            12.0,
            13.7,
            14.3,
            12.6,
            10.7,
            11.7,
            13.8,
            12.9,
            11.5,
            12.3,
            14.3,
            14.3,
            12.3,
            10.9,
            12.0,
            13.3,
            12.1,
            10.6,
            9.9,
            11.2,
            11.5,
            11.1,
            12.4,
            11.7,
            10.7,
            10.9,
            12.2,
            8.9,
            10.0,
            10.0,
            9.7,
            9.8,
            8.5,
            9.2,
            11.9,
            10.1,
            9.4,
            10.0,
            10.8,
            11.1,
            9.6,
            9.1,
            9.9,
            11.6,
            10.3,
            10.4,
            14.1,
            12.2,
            12.2,
            9.9,
            9.7,
            10.7,
            11.5,
            11.0,
            9.7,
            9.1,
            11.1,
            11.0,
            10.1,
            9.9,
            11.8,
            9.5,
            13.4,
            10.8,
            9.0,
            9.8,
            10.1,
            9.4,
            8.3,
            9.2,
            16.7,
            11.3,
            9.4,
            12.8,
            10.6,
            10.4,
            11.5,
            10.6,
            10.6,
            11.4,
            12.4,
            12.7,
            10.4,
            10.2,
            13.0,
            14.2,
            11.6,
            10.9,
            11.6,
            14.6,
            14.5,
            12.4,
            11.6,
            13.6,
            14.3,
            13.1,
            11.4,
            10.5,
            12.7,
            13.9,
            12.6,
            11.0,
            12.0,
            13.6,
            13.3,
            11.0,
            10.4,
            11.5,
            12.8,
            11.6,
            10.0,
            10.6,
            12.5,
            12.5,
            10.7,
            9.5,
            10.5,
            12.3,
            11.7,
            9.7,
            9.4,
            10.3,
            12.0,
            11.5,
            9.1,
            9.7,
            10.0,
            11.5,
            11.1,
            9.7,
            11.1,
            11.4,
            11.1,
            10.2,
            9.1,
            10.8,
            11.1,
            10.0,
            9.1,
            10.2,
            10.9,
            10.4,
            9.5,
            9.2,
            9.5,
            10.0,
            11.4,
            9.2,
            8.4,
            10.2,
            10.7,
            9.7,
            8.7,
            10.2,
            10.8,
            10.1,
            9.0,
            8.6,
            10.5,
            11.6,
            9.7,
            9.1,
            9.0,
            10.5,
            11.7,
            10.6,
            9.4,
            10.9,
            12.3,
            11.4,
            9.8,
            10.2,
            12.3,
            12.6,
            10.2,
            9.2,
            10.6,
            12.4,
            13.8,
            9.2,
            9.8,
            9.2,
            10.3,
            11.0,
            9.1,
            8.2,
            9.1,
            10.8,
            11.2,
            9.4,
            9.3,
            10.2,
            11.5,
            9.8,
            8.8,
            9.4,
            11.1,
            10.3,
            8.7,
            9.0,
            9.7,
            10.9,
            10.7,
            9.1,
            10.4,
            10.2,
            10.5,
            10.4,
            8.7,
            8.9,
            10.3,
            9.0,
            8.3,
            8.4,
            9.1,
            10.2,
            9.0,
            8.3,
            8.3,
            9.4,
            11.4,
            9.2,
            8.8,
            10.1,
            9.9,
            8.6,
            8.1,
            8.6,
            10.4,
            10.1,
            9.3,
            8.8,
            9.0,
            10.4,
            10.4,
            8.6,
            9.1,
            11.1,
            10.8,
            9.2,
            9.6,
            10.9,
            10.7,
            11.6,
            10.3,
            9.0,
            9.0,
            11.6,
            11.1,
            9.5,
            9.4,
            11.7,
            11.5,
            10.1,
            8.4,
            9.2,
            12.3,
            10.1,
            12.3,
            8.2,
            9.5,
            9.9,
            9.7,
            8.4,
            8.7,
            9.8,
            10.1,
            10.3,
            8.6,
            9.5,
            9.8,
            10.7,
            9.3,
            9.1,
            10.8,
            11.4,
            8.9,
            10.8,
            12.0,
            11.3,
            10.1,
            10.1,
            10.7,
            15.4,
            15.5,
            10.9,
            9.9,
            11.9,
            13.3,
            11.6,
            10.0,
            10.3,
            12.2,
            13.1,
            11.1,
            10.0,
            10.8,
            12.8,
            12.7,
            10.3,
            9.6,
            12.3,
            10.9,
            9.1,
            9.1,
            9.5,
            12.6,
            14.1,
            10.2,
            9.1,
            9.8,
            10.9,
            11.5,
            9.9,
            9.4,
            10.6,
            11.7,
            9.7,
            10.4,
            10.8,
            12.3,
            11.7,
            10.4,
            10.0,
            11.7,
            12.1,
            10.9,
            10.2,
            9.4,
            11.6,
            11.5,
            9.8,
            8.9,
            11.1,
            11.2,
            9.7,
            8.9,
            9.4,
            10.7,
            10.3,
            10.6,
            8.4,
            10.4,
            10.2,
            9.0,
            9.7,
            8.9,
            9.5,
            9.9,
            9.6,
            8.0,
            8.4,
            9.3,
            9.7,
            9.1,
            8.0,
            8.2,
            10.0,
            9.7,
            8.5,
            8.3,
            9.1,
            9.6,
            10.0,
            9.4,
            8.3,
            9.2,
            10.2,
            8.2,
            9.2,
            10.3,
            9.6,
            8.9,
            8.7,
            10.2,
            10.3,
            9.7,
            10.3,
            9.3,
            8.2,
            10.3,
            9.0,
            8.2,
            8.4,
            10.4,
            10.5,
            9.4,
            8.9,
            8.5,
            9.3,
            10.6,
            10.5,
            8.8,
            8.8,
            10.3,
            10.8,
            8.9,
            8.6,
            10.8,
            10.9,
            9.0,
            9.1,
            9.4,
            10.6,
            11.1,
            9.7,
            8.9,
            9.1,
            11.1,
            11.1,
            9.5,
            9.0,
            10.8,
            11.3,
            10.2,
            9.6,
            10.8,
            11.4,
            10.3,
            10.5,
            9.5,
            9.1,
            10.5,
            11.1,
            9.5,
            10.0,
            10.9,
            10.4,
            8.9,
            8.4,
            9.8,
            10.5,
            9.6,
            8.4,
            9.1,
            10.4,
            10.0,
            9.3,
            8.8,
            9.5,
            10.3,
            10.5,
            9.0,
            9.4,
            10.1,
            10.4,
            8.8,
            8.3,
            8.6,
            10.0,
            10.8,
            9.0,
            8.2,
            8.3,
            10.1,
            9.9,
            8.4,
            8.3,
            8.1,
            8.0,
            11.9,
            11.1,
            8.4,
            9.0,
            9.0,
            9.7,
            10.6,
            9.3,
            8.6,
            9.2,
            10.2,
            11.1,
            11.2,
            8.7,
            10.0,
            9.1,
            10.6,
            10.9,
            9.2,
            8.4,
            8.7,
            9.4,
            10.5,
            10.6,
            10.4,
            9.6,
            8.4,
            8.8,
            10.0,
            10.9,
            10.1,
            9.2,
            9.4,
            9.1,
            10.3,
            11.5,
            12.1,
            10.2,
            9.7,
            9.4,
            9.2,
            9.1,
            9.5,
            11.2,
            10.8,
            9.1,
            8.5,
            8.5,
            8.6,
            9.9,
            10.2,
            10.1,
            9.5,
            9.1,
            8.7,
            8.6,
            9.1,
            9.3,
            11.3,
            10.6,
            10.1,
            10.4,
            10.1,
            9.8,
            9.2,
            8.8,
            8.8,
            8.5,
            9.3,
            10.6,
            10.0,
            9.2,
            9.1,
            8.4,
            8.2,
            8.4,
            8.6,
            8.9,
            9.1,
            11.5,
            14.8,
            11.1,
            10.9,
            9.9,
            9.1,
            9.0,
            8.4,
            8.5,
            8.9,
            9.2,
            11.0,
            10.4,
            10.0,
            9.4,
            8.7,
            8.8,
            9.2,
            8.8,
            8.3,
            8.1,
            8.1,
            8.3,
            9.1,
            9.1,
            9.8,
            9.7,
            9.8,
            10.8,
            10.5,
            8.9,
            8.8,
            8.8,
            8.3,
            8.2,
            8.3,
            8.1,
            8.1,
            8.3,
            9.0,
            9.2,
            8.7,
            9.1,
            9.9,
            9.7,
            10.2,
            9.8,
            9.5,
            10.2,
            10.1,
            9.4,
            8.8,
            9.1,
            9.0,
            9.0,
            9.4,
            8.4,
            8.4,
            8.4,
            8.4,
            8.7,
            8.7,
            8.5,
            9.1,
            8.7,
            8.6,
            9.3,
            8.4,
            8.2,
            8.1,
            8.3,
            8.9,
            9.7,
            9.9,
            9.5,
            9.8,
            11.9,
            11.1,
            8.7,
            9.0,
            9.1,
            9.5,
            9.7,
            9.7,
            9.8,
            9.5,
            9.4,
            9.6,
            9.6,
            10.0,
            10.1,
            9.8,
            9.4,
            9.0,
            9.6,
            10.0,
            9.3,
            9.0,
            9.1,
            9.1,
            8.8,
            8.8,
            8.6,
            8.4,
            9.0,
            9.3,
            8.9,
            8.3,
            10.4,
            10.1,
            10.0,
            10.2,
            11.1,
            11.3,
            11.0,
            11.6,
            11.7,
            12.7,
            13.1,
            12.2,
            11.6,
            12.6,
            13.2,
            12.3,
            10.9,
            10.5,
            10.7,
            10.4,
            10.2,
            10.5,
            10.8,
            10.0,
            10.6,
            10.5,
            10.7,
            11.0,
            10.0,
            9.8,
            10.0,
            10.2,
            10.5,
            10.6,
            9.7,
            9.2,
            9.0,
            8.9,
            8.5,
            8.6,
            8.6,
            9.6,
            9.1,
            9.6,
            8.8,
            8.3,
            9.0,
            8.9,
            8.4,
            8.1,
            8.4,
            8.1,
            8.5,
            8.7,
            8.5,
            8.5,
            9.6,
            9.2,
            9.6,
            9.1,
            9.1,
            9.4,
            8.9,
            9.6,
            9.5,
            9.6,
            10.7,
            11.8,
            12.2,
            10.9,
            9.6,
            9.5,
            9.7,
            9.8,
            9.8,
            10.2,
            11.0,
            11.9,
            12.1,
            10.7,
            9.8,
            9.9,
            10.3,
            9.7,
            10.0,
            10.9,
            10.5,
            9.5,
            9.1,
            9.2,
            9.0,
            8.8,
            9.4,
            10.9,
            9.9,
            9.2,
            9.5,
            8.8,
            8.6,
            9.9,
            10.3,
            8.9,
            8.3,
            8.3,
            8.2,
            8.1,
            8.4,
            8.3,
            8.6,
            9.7,
            8.2,
            8.1,
            9.0,
            10.5,
            11.0,
            8.6,
            8.3,
            9.1,
            10.6,
            8.7,
            8.4,
            8.4,
            8.4,
            8.5,
            10.7,
            9.7,
            8.9,
            8.6,
            8.5,
            8.5,
            8.9,
            8.8,
            8.2,
            8.2,
            8.3,
            8.7,
            9.4,
            9.9,
            9.7,
            8.5,
            8.2,
            9.6,
            9.2,
            8.6,
            8.2,
            8.1,
            8.5,
            8.8,
            9.0,
            8.2,
            7.9,
            9.0,
            10.2,
            9.1,
            8.1,
            8.4,
            8.7,
            8.6,
            8.3,
            8.2,
            8.4,
            8.5,
            8.3,
            8.3,
            8.5,
            8.6,
            8.3,
            8.5,
            8.3,
            8.4,
            8.9,
            8.4,
            8.3,
            8.7,
            9.1,
            9.1,
            8.8,
            8.6,
            8.3,
            9.2,
            9.1,
            8.8,
            8.6,
            8.4,
            9.8,
            9.1,
            9.2,
            9.2,
            8.8,
            9.0,
            8.9,
            8.9,
            8.8,
            9.1,
            9.7,
            9.2,
            8.7,
            8.9,
            9.7,
            9.4,
            8.7,
            9.0,
            9.5,
            9.1,
            8.8,
            8.6,
            9.3,
            9.5,
            9.7,
            8.7,
            8.9,
            9.4,
            10.4,
            10.0,
            9.0,
            8.8,
            8.6,
            9.1,
            8.8,
            8.9,
            10.2,
            9.5,
            9.2,
            9.1,
            8.7,
            9.2,
            9.6,
            9.1,
            8.6,
            8.6,
            8.8,
            9.2,
            8.6,
            8.5,
            8.9,
            9.0,
            8.4,
            8.6,
            8.6,
            9.6,
            9.1,
            8.5,
            8.5,
            9.7,
            10.7,
            10.2,
            8.8,
            8.2,
            8.5,
            9.2,
            8.3,
            8.4,
            10.6,
            9.1,
            8.4,
            8.6,
            8.6,
            8.5,
            9.1,
            8.7,
            8.7,
            8.9,
            9.4,
            9.2,
            8.9,
            9.5,
            9.4,
            8.7,
            8.7,
            8.3,
            8.8,
            8.8,
            8.7,
            8.5,
            8.3,
            9.3,
            10.1,
            9.4,
            11.3,
            12.4,
            8.9,
            8.8,
            8.6,
            8.5,
            8.6,
            9.7,
            9.0,
            8.6,
            8.2,
            8.6,
            8.5,
            8.2,
            8.1,
            8.4,
            8.5,
            10.4,
            9.5,
            8.7,
            10.7,
            9.4,
            8.5,
            8.7,
            9.1,
            9.3,
            9.1,
            8.7,
            9.3,
            10.1,
            9.2,
            8.6,
            8.8,
            8.6,
            8.6,
            8.8,
            9.3,
            8.5,
            9.2,
            8.8,
            8.7,
            8.2,
            8.9,
            9.1,
            9.2,
            9.2,
            8.4,
            8.3,
            8.7,
            12.7,
            8.4,
            8.2,
            9.9,
            8.2,
            8.4,
            7.8,
            8.4,
            8.3,
            8.1,
            8.7,
            9.1,
            10.6,
            11.1,
            9.1,
            8.1,
            8.3,
            8.8,
            8.6,
            8.1,
            9.2,
            9.7,
            9.6,
            8.0,
            8.6,
            9.2,
            9.5,
            8.3,
            8.1,
            8.7,
            8.6,
            8.8,
            8.7,
            8.1,
            8.4,
            8.7,
            8.8,
            8.2,
            9.4,
            9.8,
            8.9,
            11.0,
            8.4,
            8.9,
            10.1,
            9.4,
            8.8,
            8.3,
            8.8,
            10.1,
            8.6,
            8.6,
            8.8,
            9.0,
            9.3,
            8.2,
            8.8,
            9.4,
            8.9,
            8.2,
            8.2,
            8.7,
            8.7,
            8.3,
            8.4,
            9.0,
            9.2,
            8.8,
            9.3,
            8.8,
            9.5,
            9.5,
            8.8,
            9.1,
            9.2,
            10.5,
            9.7,
            8.6,
            8.2,
            8.7,
            9.4,
            9.6,
            8.6,
            8.7,
            10.1,
            8.7,
            8.0,
            8.5,
            9.7,
            10.1,
            9.4,
            8.9,
            8.4,
            8.8,
            9.7,
            8.5,
            8.6,
            8.7,
            8.9,
            8.5,
            8.5,
            8.6,
            9.0,
            9.0,
            8.4,
            8.7,
            9.3,
            9.7,
            8.9,
            8.4,
            9.6,
            8.2,
            8.6,
            8.7,
            8.5,
            8.6,
            9.7,
            12.5,
            9.3,
            10.2,
            9.3,
            9.5,
            8.5,
            8.4,
            8.4,
            8.7,
            9.3,
            9.0,
            9.6,
            8.8,
            10.0,
            8.6,
            8.2,
            8.6,
            9.2,
            10.3,
            10.1,
            9.5,
            9.2,
            9.9,
            8.6,
            8.1,
            8.2,
            8.5,
            8.8,
            8.6,
            8.2,
            8.1,
            8.3,
            8.8,
            8.7,
            8.7,
            8.5,
            8.8,
            9.6,
            8.9,
            8.5,
            8.8,
            8.7,
            9.6,
            9.0,
            8.7,
            9.1,
            9.8,
            8.5,
            8.7,
            8.7,
            8.7,
            8.7,
            9.1,
            9.7,
            8.4,
            10.1,
            8.7,
            8.5,
            8.4,
            9.1,
            10.6,
            8.6,
            8.0,
            9.4,
            8.8,
            8.8,
            8.2,
            7.8,
            8.0,
            8.1,
            8.3,
            8.0,
            7.8,
            8.0,
            9.1,
            10.3,
            9.0,
            8.1,
            8.6,
            8.5,
            8.3,
            8.2,
            8.2,
            8.7,
            8.4,
            8.2,
            8.2,
            8.9,
            9.5,
            8.6,
            7.9,
            8.1,
            8.8,
            9.4,
            8.5,
            7.9,
            8.0,
            8.3,
            8.4,
            8.3,
            7.8,
            8.2,
            9.0,
            8.9,
            8.3,
            7.8,
            8.6,
            10.2,
            8.5,
            8.1,
            8.0,
            8.8,
            9.0,
            8.4,
            8.2,
            9.3,
            9.6,
            8.8,
            8.4,
            9.3,
            12.7,
            9.2,
            8.6,
            8.2,
            8.3,
            9.1,
            9.0,
            7.9,
            9.1,
            9.1,
            9.2,
            8.2,
            8.0,
            8.9,
            11.9,
            9.2,
            8.3,
            8.7,
            9.3,
            10.2,
            8.4,
            8.0,
            8.1,
            8.6,
            8.7,
            12.2,
            10.6,
            10.7,
            9.1,
            12.0,
            8.7,
            8.7,
            9.1,
            9.2,
            9.4,
            8.6,
            8.9,
            9.1,
            9.2,
            8.5,
            8.1,
            8.3,
            9.2,
            9.5,
            8.8,
            8.1,
            9.5,
            10.3,
            9.4,
            8.4,
            9.1,
            9.7,
            9.6,
            8.5,
            8.6,
            9.0,
            9.2,
            9.0,
            8.7,
            9.5,
            9.1,
            8.7,
            8.8,
            9.2,
            12.5,
            13.4,
            9.5,
            9.0,
            9.0,
            9.3,
            9.9,
            10.2,
            9.1,
            9.1,
            8.9,
            9.4,
            8.7,
            8.2,
            9.2,
            9.5,
            9.3,
            8.9,
            9.0,
            10.1,
            10.1,
            9.6,
            8.6,
            8.5,
            9.0,
            9.9,
            9.3,
            8.0,
            8.3,
            8.7,
            9.0,
            8.3,
            7.9,
            8.7,
            9.2,
            9.2,
            9.9,
            9.3,
            9.3,
            10.1,
            9.4,
            8.4,
            8.7,
            9.9,
            12.2,
            10.1,
            8.9,
            9.1,
            9.7,
            9.3,
            8.8,
            8.3,
            8.8,
            9.3,
            8.7,
            7.8,
            8.4,
            8.8,
            9.1,
            8.8,
            8.2,
            9.2,
            9.3,
            9.5,
            8.0,
            8.2,
            9.1,
            8.5,
            7.9,
            8.0,
            8.1,
            8.4,
            8.7,
            8.1,
            7.9,
            8.4,
            8.9,
            8.7,
            8.3,
            8.0,
            8.7,
            9.4,
            8.6,
            8.2,
            8.4,
            8.9,
            8.8,
            8.1,
            8.2,
            8.4,
            8.5,
            8.6,
            8.2,
            8.2,
            8.4,
            8.7,
            8.8,
            8.2,
            8.3,
            8.9,
            8.6,
            8.3,
            8.3,
            9.0,
            9.5,
            9.5,
            9.0,
            8.5,
            8.8,
            9.6,
            9.4,
            8.6,
            9.7,
            9.9,
            9.1,
            8.4,
            8.4,
            9.1,
            10.2,
            9.4,
            8.4,
            8.4,
            9.4,
            8.6,
            8.0,
            8.0,
            8.4,
            8.9,
            8.9,
            8.1,
            8.2,
            9.2,
            9.1,
            8.5,
            8.2,
            8.5,
            8.1,
            8.7,
            11.1,
            10.1,
            8.8,
            8.7,
            8.2,
            8.2,
            9.0,
            9.4,
            8.9,
            8.0,
            8.0,
            8.2,
            8.8,
            8.9,
            9.1,
            8.9,
            9.4,
            9.5,
            8.4,
            8.2,
            9.1,
            8.9,
            8.6,
            8.3,
            8.3,
            9.1,
            10.3,
            9.3,
            8.5,
            8.8,
            9.6,
            9.2,
            8.6,
            8.3,
            8.8,
            9.5,
            8.7,
            10.0,
            9.7,
            9.0,
            9.2,
            8.7,
            8.4,
            8.6,
            9.4,
            9.1,
            8.9,
            8.9,
            8.6,
            9.2,
            9.1,
            8.8,
            9.0,
            9.6,
            10.2,
            9.7,
            9.4,
            9.4,
            10.0,
            10.4,
            9.5,
            8.9,
            9.0,
            9.6,
            9.8,
            8.8,
            8.5,
            9.1,
            10.1,
            9.9,
            8.8,
            8.2,
            9.5,
            10.9,
            11.9,
            8.7,
            8.7,
            9.4,
            9.6,
            8.5,
            8.3,
            8.9,
            9.3,
            9.5,
            9.0,
            8.6,
            8.7,
            9.1,
            9.6,
            8.8,
            8.2,
            8.3,
            8.8,
            8.2,
            8.7,
            8.6,
            9.0,
            8.5,
            8.0,
            8.1,
            8.9,
            9.9,
            8.2,
            8.7,
            9.3,
            10.9,
            9.7,
            9.0,
            8.7,
            9.2,
            9.5,
            9.3,
            8.7,
            8.7,
            9.7,
            9.7,
            9.2,
            8.8,
            8.8,
            9.5,
            9.6,
            9.1,
            8.5,
            8.6,
            9.1,
            9.3,
            8.0,
            7.9,
            8.0,
            8.0,
            7.8,
            8.1,
            8.4,
            9.7,
            9.1,
            8.2,
            9.1,
            19.2,
            9.9,
            9.3,
            8.8,
            9.6,
            10.7,
            10.4,
            9.5,
            9.2,
            10.0,
            10.7,
            10.6,
            9.4,
            10.8,
            11.6,
            11.1,
            10.2,
            9.9,
            10.1,
            11.3,
            10.3,
            9.5,
            9.9,
            11.1,
            10.4,
            9.3,
            10.6,
            10.8,
            9.4,
            9.3,
            8.9,
            9.3,
            9.6,
            10.4,
            9.3,
            9.0,
            9.1,
            9.6,
            10.6,
            9.6,
            8.7,
            9.3,
            9.6,
            9.7,
            8.8,
            8.9,
            9.6,
            10.2,
            9.9,
            8.6,
            9.8,
            9.7,
            10.1,
            9.6,
            8.6,
            9.3,
            9.9,
            9.2,
            9.1,
            9.2,
            9.6,
            9.8,
            10.6,
            9.1,
            9.0,
            10.4,
            10.4,
            8.9,
            8.7,
            8.9,
            9.7,
            9.5,
            9.3,
            9.2,
            11.1,
            13.0,
            10.1,
            9.3,
            9.6,
            9.9,
            9.9,
            9.2,
            9.0,
            9.1,
            9.6,
            9.6,
            9.0,
            8.7,
            9.3,
            9.8,
            9.9,
            9.2,
            9.0,
            10.0,
            9.8,
            9.0,
            8.8,
            9.3,
            9.5,
            9.2,
            8.8,
            8.6,
            9.2,
            9.9,
            9.4,
            8.6,
            8.9,
            10.2,
            10.6,
            9.3,
            8.7,
            12.6,
            11.5,
            10.7,
            8.6,
            8.6,
            9.4,
            9.9,
            9.3,
            8.6,
            8.7,
            9.0,
            9.1,
            8.5,
            8.6,
            8.6,
            8.9,
            9.1,
            8.1,
            9.4,
            9.1,
            9.8,
            9.5,
            8.6,
            8.5,
            8.9,
            9.2,
            8.8,
            8.8,
            10.1,
            10.1,
            9.9,
            9.7,
            9.3,
            9.9,
            10.8,
            10.8,
            10.4,
            10.0,
            10.7,
            11.0,
            10.1,
            9.5,
            9.9,
            10.6,
            9.5,
            8.7,
            8.9,
            8.9,
            8.9,
            8.6,
            8.4,
            8.9,
            9.2,
            9.9,
            9.1,
            8.6,
            8.8,
            9.3,
            9.1,
            8.7,
            8.7,
            9.3,
            9.7,
            9.2,
            8.6,
            8.4,
            8.6,
            9.6,
            9.1,
            8.4,
            8.9,
            9.8,
            9.9,
            9.4,
            8.8,
            8.7,
            9.7,
            9.3,
            8.3,
            8.7,
            9.2,
            9.9,
            9.2,
            8.5,
            8.7,
            9.5,
            9.9,
            8.5,
            8.4,
            8.8,
            9.3,
            9.4,
            9.0,
            8.9,
            9.2,
            9.2,
            8.6,
            8.8,
            8.8,
            9.3,
            9.5,
            8.9,
            8.9,
            9.0,
            8.9,
            11.0,
            9.6,
            8.6,
            8.9,
            9.4,
            12.6,
            8.7,
            8.7,
            9.1,
            9.1,
            8.3,
            8.8,
            9.8,
            9.2,
            8.9,
            8.3,
            9.1,
            9.5,
            8.7,
            8.3,
            8.0,
            8.1,
            8.4,
            9.0,
            10.4,
            9.9,
            8.8,
            9.3,
            8.8,
            9.8,
            9.9,
            9.3,
            10.0,
            9.0,
            9.1,
            8.7,
            9.3,
            9.1,
            8.7,
            9.7,
            9.6,
            8.7,
            8.2,
            8.1,
            9.2,
            9.7,
            9.0,
            10.0,
            9.7,
            8.8,
            9.1,
            8.9,
            8.7,
            8.6,
            9.5,
            10.5,
            9.7,
            12.3,
            9.1,
            9.7,
            9.6,
            9.9,
            13.0,
            11.1,
            9.4,
            9.3,
            8.3,
            8.9,
            12.2,
            9.7,
            9.7,
            9.4,
            13.3,
            11.1,
            9.7,
            9.1,
            9.2,
            11.6,
            8.7,
            9.2,
            12.5,
            11.3,
            11.5,
            10.5,
            9.8,
            9.2,
            13.2,
            10.1,
            14.4,
            9.3,
            10.0,
            10.7,
            9.6,
            8.8,
            8.4,
            15.6,
            11.3,
            10.4,
            9.5,
            12.6,
            10.4,
            9.6,
            9.2,
            8.9,
            9.4,
            10.2,
            10.1,
            9.3,
            9.4,
            10.7,
            11.1,
            10.1,
            9.3,
            9.6,
            10.9,
            11.0,
            9.5,
            8.9,
            9.6,
            10.1,
            9.8,
            9.4,
            9.2,
            9.7,
            9.8,
            9.3,
            8.7,
            8.8,
            9.4,
            9.9,
            9.6,
            9.4,
            9.8,
            10.9,
            11.8,
            11.3,
            10.1,
            9.7,
            9.4,
            8.9,
            8.4,
            8.7,
            10.3,
            10.4,
            9.5,
            9.3,
            10.5,
            10.6,
            9.5,
            10.3,
            13.4,
            11.1,
            11.7,
            10.7,
            11.7,
            9.9,
            9.1,
            10.1,
            9.9,
            9.4,
            10.0,
            10.2,
            9.8,
            8.8,
            8.6,
            9.0,
            13.8,
            9.9,
            9.3,
            9.3,
            9.9,
            9.6,
            9.2,
            9.6,
            10.1,
            10.6,
            10.3,
            9.3,
            9.1,
            9.6,
            11.2,
            10.8,
            13.8,
            10.4,
            10.0,
            15.8,
            19.0,
            9.9,
            10.0,
            11.5,
            11.8,
            10.1,
            9.8,
            10.4,
            10.7,
            10.3,
            10.0,
            9.2,
            9.6,
            9.5,
            8.8,
            11.6,
            11.3,
            11.1,
            10.7,
            11.2,
            8.5,
            9.8,
            11.3,
            9.5,
            9.3,
            9.3,
            10.2,
            9.6,
            8.6,
            12.6,
            16.7,
            12.3,
            11.8,
            11.7,
            11.1,
            11.3,
            11.1,
            10.7,
            12.0,
            13.5,
            18.9,
            11.3,
            11.1,
            11.2,
            11.0,
            10.4,
            12.8,
            15.6,
            10.1,
            10.6,
            11.3,
            11.0,
            10.1,
            10.0,
            10.7,
            10.6,
            9.2,
            8.9,
            9.1,
            13.0,
            10.2,
            9.8,
            16.6,
            18.5,
            41.4,
            10.9,
            10.0,
            9.6,
            11.5,
            12.2,
            10.7,
            10.6,
            10.2,
            11.6,
            10.8,
            10.7,
            13.1,
            18.8,
            18.2,
            14.0,
            17.8,
            9.2,
            9.7,
            10.2,
            9.3,
            9.1,
            9.2,
            11.3,
            10.4,
            11.3,
            11.4,
            10.1,
            9.6,
            9.5,
            9.9,
            11.9,
            10.5,
            9.4,
            14.0,
            28.5,
            10.7,
            12.3,
            16.7,
            15.5,
            11.6,
            14.4,
            21.0,
            21.7,
            10.6,
            10.1,
            11.0,
            13.5,
            11.1,
            12.4,
            9.9,
            9.7,
            9.9,
            11.0,
            10.4,
            10.0,
            9.5,
            9.9,
            13.4,
            12.3,
            9.3,
            9.8,
            14.8,
            11.0,
            10.5,
            10.6,
            9.7,
            17.8,
            10.6,
            10.6,
            11.2,
            10.6,
            10.1,
            8.7,
            8.6,
            12.4,
            15.5,
            11.6,
            11.2,
            22.8,
            18.9,
            10.1,
            10.0,
            9.1,
            9.2,
            10.3,
            10.5,
            9.4,
            9.1,
            16.4,
            11.2,
            10.2,
            9.2,
            9.2,
            9.8,
            10.0,
            9.6,
            9.5,
            9.4,
            11.4,
            14.4,
            9.0,
            8.7,
            9.0,
            12.0,
            9.3,
            9.3,
            9.6,
            11.1,
            10.7,
            10.7,
            9.2,
            9.3,
            10.3,
            11.0,
            9.9,
            10.0,
            13.5,
            10.1,
            9.5,
            8.8,
            9.3,
            8.9,
            10.1,
            11.0,
            9.5,
            9.7,
            10.1,
            13.9,
            8.9,
            8.7,
            9.5,
            9.6,
            9.4,
            9.1,
            9.2,
            12.3,
            10.5,
            9.8,
            9.1,
            11.1,
            12.3,
            10.6,
            11.5,
            15.8,
            12.6,
            10.9,
            10.5,
            9.4,
            9.4,
            12.6,
            10.4,
            9.3,
            9.3,
            10.2,
            10.8,
            10.6,
            9.9,
            9.5,
            10.4,
            11.0,
            10.2,
            11.4,
            16.1,
            11.6,
            10.3,
            9.4,
            13.1,
            14.7,
            11.5,
            9.5,
            10.4,
            10.5,
            8.9,
            10.4,
            10.3,
            9.2,
            9.6,
            9.7,
            10.3,
            10.0,
            9.5,
            10.0,
            10.7,
            10.6,
            9.5,
            9.2,
            10.1,
            10.7,
            10.7,
            10.2,
            9.3,
            9.8,
            10.3,
            9.7,
            9.4,
            9.5,
            10.3,
            10.0,
            9.3,
            9.1,
            9.4,
            10.8,
            10.7,
            9.9,
            9.6,
            10.6,
            10.4,
            10.0,
            9.9,
            11.5,
            11.1,
            11.2,
            10.0,
            9.4,
            9.6,
            10.0,
            10.1,
            9.5,
            9.8,
            9.8,
            9.4,
            9.6,
            9.9,
            10.5,
            14.0,
            9.5,
            9.4,
            9.7,
            10.6,
            11.3,
            11.3,
            9.9,
            9.2,
            9.5,
            9.4,
            9.0,
            9.1,
            10.1,
            10.7,
            10.0,
            9.1,
            9.6,
            10.6,
            10.2,
            9.3,
            9.1,
            9.1,
            10.0,
            10.4,
            9.6,
            9.0,
            9.8,
            9.9,
            9.8,
            10.8,
            9.2,
            9.4,
            9.9,
            9.6,
            9.2,
            9.6,
            10.2,
            10.2,
            13.8,
            9.5,
            9.8,
            11.2,
            11.0,
            9.4,
            9.2,
            10.0,
            10.6,
            9.7,
            8.9,
            8.8,
            10.0,
            10.5,
            9.3,
            8.8,
            9.1,
            10.3,
            10.8,
            9.4,
            9.3,
            9.6,
            9.5,
            9.4,
            9.4,
            9.8,
            10.4,
            10.4,
            9.6,
            9.3,
            9.9,
            10.9,
            10.6,
            9.4,
            8.9,
            9.8,
            10.1,
            9.6,
            9.2,
            10.6,
            10.8,
            10.8,
            9.5,
            9.5,
            9.9,
            10.0,
            9.2,
            9.0,
            9.0,
            10.0,
            10.1,
            9.3,
            8.8,
            9.0,
            10.0,
            10.1,
            9.1,
            9.1,
            9.8,
            9.7,
            9.8,
            9.2,
            9.4,
            10.1,
            10.7,
            10.3,
            9.4,
            9.7,
            10.1,
            10.3,
            9.6,
            9.2,
            9.8,
            10.7,
            9.9,
            9.1,
            8.7,
            9.4,
            10.1,
            9.4,
            9.0,
            9.2,
            9.9,
            9.7,
            9.0,
            8.8,
            9.7,
            10.4,
            9.8,
            9.3,
            9.6,
            10.2,
            10.6,
            10.3,
            9.5,
            10.2,
            11.1,
            10.5,
            9.4,
            9.2,
            10.6,
            11.0,
            10.5,
            9.5,
            15.8,
            12.1,
            11.3,
            10.1,
            9.7,
            10.0,
            11.2,
            10.9,
            10.1,
            9.7,
            10.0,
            10.7,
            10.2,
            9.3,
            9.5,
            10.0,
            10.3,
            10.2,
            9.5,
            10.1,
            10.6,
            9.9,
            9.3,
            9.2,
            10.4,
            10.5,
            9.9,
            9.5,
            9.9,
            11.3,
            11.1,
            10.2,
            9.4,
            9.5,
            9.9,
            10.9,
            10.2,
            9.1,
            10.4,
            11.7,
            11.0,
            9.6,
            9.9,
            10.1,
            10.3,
            10.1,
            9.4,
            9.9,
            10.0,
            9.4,
            9.1,
            9.5,
            10.5,
            10.9,
            10.3,
            9.1,
            9.3,
            10.4,
            10.7,
            10.0,
            9.5,
            10.1,
            11.0,
            10.6,
            9.4,
            9.5,
            10.3,
            9.5,
            9.2,
            9.1,
            9.6,
            10.9,
            10.8,
            9.7,
            10.0,
            10.5,
            11.1,
            10.6,
            9.7,
            9.7,
            9.8,
            10.3,
            10.6,
            9.5,
            9.2,
            10.0,
            10.4,
            9.9,
            9.5,
            9.7,
            10.2,
            10.2,
            9.7,
            9.9,
            10.4,
            10.7,
            9.8,
            9.3,
            9.9,
            11.4,
            10.8,
            10.1,
            10.8,
            11.4,
            11.9,
            10.5,
            9.6,
            9.6,
            10.0,
            10.1,
            10.4,
            9.6,
            10.0,
            11.0,
            10.4,
            9.8,
            9.5,
            9.7,
            10.2,
            10.2,
            9.2,
            9.2,
            9.9,
            10.0,
            9.4,
            9.5,
            10.5,
            11.3,
            10.7,
            9.7,
            9.2,
            9.8,
            10.5,
            10.3,
            9.3,
            9.8,
            11.1,
            11.9,
            11.1,
            9.5,
            9.9,
            10.4,
            10.0,
            9.6,
            9.4,
            9.4,
            9.3,
            9.5,
            9.1,
            9.7,
            10.3,
            9.8,
            9.0,
            9.1,
            9.4,
            10.3,
            9.9,
            8.8,
            8.7,
            9.1,
            9.3,
            9.2,
            8.9,
            9.1,
            10.2,
            10.4,
            9.3,
            9.2,
            9.4,
            10.0,
            9.7,
            9.0,
            9.1,
            9.8,
            10.7,
            10.6,
            11.8,
            11.8,
            10.3,
            9.9,
            9.2,
            9.0,
            9.8,
            10.0,
            9.0,
            8.7,
            8.7,
            8.9,
            8.8,
            8.5,
            8.4,
            8.7,
            9.6,
            9.7,
            8.7,
            8.6,
            9.1,
            9.4,
            8.9,
            8.5,
            9.0,
            9.9,
            10.3,
            9.3,
            8.8,
            8.6,
            9.3,
            8.9,
            9.5,
            9.1,
            10.5,
            11.8,
            11.0,
            10.1,
            10.1,
            11.1,
            10.0,
            9.0,
            9.1,
            9.7,
            9.8,
            9.8,
            8.6,
            9.0,
            10.7,
            9.0,
            8.5,
            9.4,
            9.7,
            10.2,
            9.6,
            9.0,
            10.3,
            11.2,
            10.7,
            9.2,
            8.7,
            9.3,
            12.2,
            10.3,
            8.8,
            11.9,
            14.3,
            15.2,
            11.1,
            8.4,
            9.8,
            10.3,
            9.1,
            8.6,
            9.3,
            9.9,
            9.4,
            8.7,
            8.2,
            8.3,
            8.7,
            9.4,
            8.8,
            8.5,
            8.5,
            8.9,
            8.4,
            8.0,
            8.5,
            8.6,
            8.7,
            9.3,
            8.4,
            9.1,
            8.9,
            8.6,
            8.3,
            8.6,
            9.1,
            9.9,
            8.8,
            7.9,
            8.0,
            8.6,
            10.8,
            12.0,
            10.7
          ]
        ]
      }
    }
  },
  "experimental_conditions": {
    "001": {
      "0": {
        "detector": [
          {
            "x4_code": "(SOLST)",
            "free_txt": [
              " Silicon semiconductor detectors"
            ]
          }
        ],
        "err-analys": [
          {
            "x4_code": null,
            "free_txt": [
              "Data errors given are statistical errors only. They do",
              "not include a 10. percent systematic error which is",
              "dominated by normalization error."
            ]
          }
        ],
        "method": [
          {
            "x4_code": "(TOF)",
            "free_txt": [
              " Time-Of-Flight over 240 meter flight path"
            ]
          }
        ],
        "monitor": [
          {
            "x4_code": "(3-LI-6(N,T)2-HE-4,,SIG)",
            "free_txt": [
              " Flux monitored By Li-6(F)"
            ]
          },
          {
            "x4_code": "(92-U-235(N,F),,SIG)",
            "free_txt": [
              "     or U-235 samples.",
              "Cross section normalized to area or fission resonances",
              "at 22.85 eV and 34.99 eV (14.0 and 23.7 B*eV)"
            ]
          }
        ],
        "sample": [
          {
            "x4_code": null,
            "free_txt": [
              "Isotopic composition - Cm-243 (89 percent),",
              "                       Cm-244 (11 percent),",
              "Traces of Cm-242,Cm-245,Cm-246,Pu-239,Pu-240."
            ]
          }
        ],
        "status": [
          {
            "x4_code": "(APRVD)",
            "free_txt": [
              " Approved by M.G.Silbert, 77/9/22."
            ]
          }
        ]
      }
    },
    "002": {}
  }
}