{
  "entry": "F0947",
  "last_updated": "2012-07-02",
  "number_of_revisions": "2",
  "histories": [
    {
      "x4_code": "(20080617C)",
      "free_txt": []
    },
    {
      "x4_code": "(20120125A)",
      "free_txt": [
        " COMMON and REACTION records in Sub 002",
        "were changed."
      ]
    }
  ],
  "bib_record": {
    "title": "Gamma decay of 39K levels measured with the 38Ar(p,g)39K reaction.",
    "authors": [
      {
        "name": "S.Maripuu"
      }
    ],
    "institutes": [
      {
        "x4_code": "(2NEDUTR)",
        "free_txt": []
      }
    ],
    "references": [
      {
        "x4_code": "(J,NP/A,151,465,1970)",
        "free_txt": [],
        "publication_year": "1970",
        "pointer": "0"
      }
    ],
    "facilities": [
      {
        "x4_code": "(VDG)",
        "free_txt": [],
        "pointer": "0",
        "facility_type": "(VDG)",
        "institute": null
      }
    ]
  },
  "reactions": {
    "002": {
      "0": {
        "x4_code": "(18-AR-38(P,G)19-K-39,PAR,DA,,REL)",
        "children": [
          {
            "code": [
              "18-AR-38",
              [
                "P,G"
              ],
              "19-K-39,PAR,DA,,REL"
            ],
            "type": null,
            "target": "18-AR-38",
            "process": "P,G",
            "sf49": "19-K-39,PAR,DA,,REL",
            "sf4": "19-K-39",
            "sf5": "PAR",
            "sf6": "DA",
            "sf7": null,
            "sf8": "REL",
            "sf9": null
          }
        ],
        "type": null,
        "free_text": "Data are given in counts per 20 mu-Coulomb."
      }
    },
    "003": {
      "0": {
        "x4_code": "(18-AR-38(P,G)19-K-39,,DA/DE,,REL)",
        "children": [
          {
            "code": [
              "18-AR-38",
              [
                "P,G"
              ],
              "19-K-39,,DA/DE,,REL"
            ],
            "type": null,
            "target": "18-AR-38",
            "process": "P,G",
            "sf49": "19-K-39,,DA/DE,,REL",
            "sf4": "19-K-39",
            "sf5": null,
            "sf6": "DA/DE",
            "sf7": null,
            "sf8": "REL",
            "sf9": null
          }
        ],
        "type": null,
        "free_text": ""
      }
    }
  },
  "data_tables": {
    "001": {
      "common": {
        "heads": [
          "ANG"
        ],
        "units": [
          "ADEG"
        ],
        "data": [
          [
            55.0
          ]
        ]
      }
    },
    "002": {
      "common": {
        "heads": [
          "E-MIN",
          "E-MAX",
          "EN-ERR-DIG",
          "ERR-DIG"
        ],
        "units": [
          "MEV",
          "MEV",
          "KEV",
          "ARB-UNITS"
        ],
        "data": [
          [
            2.0
          ],
          [
            9.0
          ],
          [
            0.309
          ],
          [
            0.686
          ]
        ]
      },
      "data": {
        "heads": [
          "EN",
          "DATA"
        ],
        "units": [
          "KEV",
          "ARB-UNITS"
        ],
        "data": [
          [
            1260.0,
            1262.0,
            1263.0,
            1264.0,
            1265.0,
            1267.0,
            1268.0,
            1269.0,
            1271.0,
            1273.0,
            1274.0,
            1276.0,
            1277.0,
            1279.0,
            1279.0,
            1281.0,
            1283.0,
            1284.0,
            1284.0,
            1286.0,
            1288.0,
            1289.0,
            1290.0,
            1291.0,
            1293.0,
            1295.0,
            1295.0,
            1297.0,
            1299.0,
            1299.0,
            1301.0,
            1302.0,
            1304.0,
            1305.0,
            1306.0,
            1308.0,
            1309.0,
            1310.0,
            1312.0,
            1313.0,
            1315.0,
            1315.0,
            1317.0,
            1318.0,
            1319.0,
            1320.0,
            1321.0,
            1324.0,
            1325.0,
            1326.0,
            1328.0,
            1328.0,
            1330.0,
            1331.0,
            1332.0,
            1334.0,
            1335.0,
            1337.0,
            1337.0,
            1339.0,
            1340.0,
            1341.0,
            1343.0,
            1345.0,
            1346.0,
            1348.0,
            1348.0,
            1350.0,
            1351.0,
            1353.0,
            1353.0,
            1353.0,
            1355.0,
            1357.0,
            1358.0,
            1359.0,
            1360.0,
            1361.0,
            1363.0,
            1364.0,
            1365.0,
            1367.0,
            1368.0,
            1370.0,
            1371.0,
            1372.0,
            1374.0,
            1376.0,
            1376.0,
            1378.0,
            1379.0,
            1380.0,
            1381.0,
            1383.0,
            1384.0,
            1387.0,
            1388.0,
            1389.0,
            1390.0,
            1392.0,
            1393.0,
            1395.0,
            1397.0,
            1397.0,
            1400.0,
            1401.0,
            1402.0,
            1404.0,
            1405.0,
            1405.0,
            1407.0,
            1408.0,
            1410.0,
            1410.0,
            1412.0,
            1413.0,
            1414.0,
            1416.0,
            1417.0,
            1419.0,
            1420.0,
            1421.0,
            1422.0,
            1424.0,
            1425.0,
            1427.0,
            1428.0,
            1429.0,
            1430.0,
            1432.0,
            1433.0,
            1434.0,
            1436.0,
            1437.0,
            1437.0,
            1439.0,
            1440.0,
            1441.0,
            1442.0,
            1443.0,
            1445.0,
            1446.0,
            1447.0,
            1448.0,
            1450.0,
            1452.0,
            1454.0,
            1454.0,
            1455.0,
            1456.0,
            1458.0,
            1459.0,
            1461.0,
            1462.0,
            1464.0,
            1466.0,
            1466.0,
            1467.0,
            1469.0,
            1470.0,
            1471.0,
            1472.0,
            1473.0,
            1475.0,
            1476.0,
            1478.0,
            1479.0,
            1481.0,
            1482.0,
            1483.0,
            1484.0,
            1486.0,
            1487.0,
            1488.0,
            1489.0,
            1491.0,
            1492.0,
            1493.0,
            1495.0,
            1497.0,
            1498.0,
            1500.0,
            1501.0,
            1502.0,
            1504.0,
            1505.0,
            1506.0,
            1508.0,
            1510.0,
            1510.0,
            1512.0,
            1514.0,
            1514.0,
            1516.0,
            1517.0,
            1519.0,
            1520.0,
            1521.0,
            1522.0,
            1524.0,
            1526.0,
            1527.0,
            1528.0,
            1530.0,
            1532.0,
            1533.0,
            1534.0,
            1536.0,
            1537.0,
            1538.0,
            1539.0,
            1541.0,
            1542.0,
            1543.0,
            1545.0,
            1546.0,
            1547.0,
            1548.0,
            1550.0,
            1552.0,
            1553.0,
            1553.0,
            1555.0,
            1556.0,
            1558.0,
            1559.0,
            1561.0,
            1562.0,
            1562.0,
            1564.0,
            1565.0,
            1567.0,
            1568.0,
            1569.0,
            1570.0,
            1572.0,
            1573.0,
            1575.0,
            1576.0,
            1578.0,
            1579.0,
            1580.0,
            1582.0,
            1583.0,
            1584.0,
            1585.0,
            1587.0,
            1588.0,
            1590.0,
            1591.0,
            1592.0,
            1594.0,
            1594.0,
            1596.0,
            1597.0,
            1599.0,
            1600.0,
            1601.0,
            1603.0,
            1604.0,
            1605.0,
            1607.0,
            1608.0,
            1609.0,
            1611.0,
            1612.0,
            1613.0,
            1614.0,
            1616.0,
            1618.0,
            1619.0,
            1621.0,
            1622.0,
            1624.0,
            1625.0,
            1626.0,
            1628.0,
            1629.0,
            1631.0,
            1632.0,
            1633.0,
            1635.0,
            1635.0,
            1637.0,
            1638.0,
            1639.0,
            1641.0,
            1642.0,
            1645.0,
            1645.0,
            1647.0,
            1649.0,
            1650.0,
            1650.0,
            1652.0,
            1653.0,
            1655.0,
            1655.0,
            1658.0,
            1659.0,
            1660.0,
            1661.0,
            1663.0,
            1664.0,
            1665.0,
            1666.0,
            1667.0,
            1669.0,
            1670.0,
            1672.0,
            1673.0,
            1674.0,
            1675.0,
            1675.0,
            1677.0,
            1678.0,
            1680.0,
            1681.0,
            1682.0,
            1684.0,
            1686.0,
            1686.0,
            1688.0,
            1689.0,
            1690.0,
            1691.0,
            1693.0,
            1695.0,
            1696.0,
            1697.0,
            1699.0,
            1701.0,
            1701.0,
            1703.0,
            1704.0,
            1707.0,
            1708.0,
            1709.0,
            1710.0,
            1712.0,
            1713.0,
            1714.0,
            1716.0,
            1717.0,
            1718.0,
            1719.0,
            1721.0,
            1722.0,
            1723.0,
            1725.0,
            1726.0,
            1727.0,
            1729.0,
            1730.0,
            1731.0,
            1733.0,
            1734.0,
            1736.0,
            1737.0,
            1738.0,
            1740.0,
            1741.0,
            1742.0,
            1744.0,
            1745.0,
            1746.0,
            1747.0,
            1748.0,
            1749.0,
            1750.0,
            1751.0,
            1751.0,
            1753.0,
            1753.0,
            1753.0,
            1754.0,
            1755.0,
            1755.0,
            1756.0,
            1757.0,
            1757.0,
            1758.0,
            1759.0,
            1760.0,
            1760.0,
            1760.0,
            1761.0,
            1761.0,
            1761.0,
            1762.0,
            1764.0,
            1765.0,
            1767.0,
            1769.0,
            1769.0,
            1772.0,
            1773.0,
            1775.0,
            1777.0,
            1778.0,
            1780.0,
            1783.0,
            1785.0,
            1786.0,
            1787.0,
            1788.0,
            1790.0,
            1792.0,
            1793.0,
            1794.0,
            1796.0,
            1798.0,
            1800.0,
            1801.0,
            1803.0,
            1803.0,
            1804.0,
            1806.0,
            1807.0,
            1808.0,
            1810.0,
            1812.0,
            1813.0,
            1815.0,
            1817.0,
            1818.0,
            1821.0,
            1821.0,
            1823.0,
            1824.0,
            1826.0,
            1827.0,
            1829.0,
            1830.0,
            1832.0,
            1834.0,
            1836.0,
            1836.0,
            1838.0,
            1840.0,
            1840.0,
            1841.0,
            1843.0,
            1844.0,
            1846.0,
            1847.0,
            1849.0,
            1852.0,
            1853.0,
            1856.0,
            1856.0,
            1859.0,
            1860.0,
            1861.0,
            1861.0,
            1863.0,
            1865.0,
            1866.0,
            1868.0,
            1869.0,
            1870.0,
            1873.0,
            1874.0,
            1875.0,
            1876.0,
            1878.0,
            1880.0,
            1881.0,
            1883.0,
            1885.0,
            1886.0,
            1888.0,
            1889.0,
            1891.0,
            1892.0,
            1893.0,
            1895.0,
            1897.0,
            1898.0,
            1900.0,
            1900.0,
            1903.0,
            1905.0,
            1906.0,
            1908.0,
            1909.0,
            1911.0,
            1912.0,
            1913.0,
            1915.0,
            1917.0,
            1919.0,
            1919.0,
            1922.0,
            1923.0,
            1924.0,
            1926.0,
            1928.0,
            1930.0,
            1931.0,
            1932.0,
            1934.0,
            1936.0,
            1937.0,
            1939.0,
            1941.0,
            1942.0,
            1943.0,
            1945.0,
            1947.0,
            1948.0,
            1949.0,
            1951.0,
            1952.0,
            1953.0,
            1955.0,
            1956.0,
            1959.0,
            1960.0,
            1962.0,
            1963.0,
            1964.0,
            1966.0,
            1968.0,
            1969.0,
            1971.0,
            1972.0,
            1973.0,
            1974.0,
            1975.0,
            1977.0,
            1978.0,
            1980.0,
            1981.0,
            1983.0,
            1985.0,
            1986.0,
            1987.0,
            1989.0,
            1991.0,
            1992.0,
            1994.0,
            1995.0,
            1997.0,
            1999.0,
            2000.0,
            2002.0,
            2003.0,
            2004.0,
            2006.0,
            2008.0,
            2010.0,
            2011.0,
            2012.0,
            2013.0,
            2015.0,
            2017.0,
            2018.0,
            2020.0,
            2022.0,
            2023.0,
            2025.0,
            2026.0,
            2028.0,
            2029.0,
            2031.0,
            2032.0,
            2034.0,
            2036.0,
            2037.0,
            2039.0,
            2040.0,
            2041.0,
            2043.0,
            2045.0,
            2046.0,
            2048.0,
            2049.0,
            2051.0,
            2052.0,
            2054.0,
            2056.0,
            2058.0,
            2059.0,
            2060.0,
            2060.0,
            2062.0,
            2063.0,
            2065.0,
            2066.0,
            2069.0,
            2069.0,
            2070.0,
            2073.0,
            2074.0,
            2076.0,
            2077.0,
            2079.0,
            2080.0,
            2081.0,
            2082.0,
            2085.0,
            2086.0,
            2088.0,
            2090.0,
            2091.0,
            2091.0,
            2094.0,
            2095.0,
            2097.0,
            2099.0,
            2100.0,
            2102.0,
            2103.0,
            2105.0,
            2106.0,
            2108.0,
            2110.0,
            2111.0,
            2113.0,
            2114.0,
            2116.0,
            2117.0,
            2119.0,
            2121.0,
            2122.0,
            2123.0,
            2125.0,
            2126.0,
            2128.0,
            2129.0,
            2131.0,
            2132.0,
            2134.0,
            2136.0,
            2137.0,
            2139.0,
            2141.0,
            2141.0,
            2143.0,
            2145.0,
            2146.0,
            2148.0,
            2151.0,
            2152.0,
            2154.0,
            2155.0,
            2157.0,
            2159.0,
            2160.0,
            2162.0,
            2163.0,
            2165.0,
            2166.0,
            2168.0,
            2169.0,
            2172.0,
            2173.0,
            2174.0,
            2176.0,
            2177.0,
            2178.0,
            2181.0,
            2182.0,
            2183.0,
            2186.0,
            2186.0,
            2188.0,
            2189.0,
            2191.0,
            2192.0,
            2194.0,
            2195.0,
            2197.0,
            2199.0,
            2201.0,
            2201.0,
            2203.0,
            2205.0,
            2205.0,
            2207.0,
            2208.0,
            2209.0,
            2211.0,
            2214.0,
            2214.0,
            2216.0,
            2217.0,
            2218.0,
            2221.0,
            2222.0,
            2224.0,
            2225.0,
            2226.0,
            2228.0,
            2229.0,
            2232.0,
            2233.0,
            2234.0,
            2236.0,
            2237.0,
            2239.0,
            2240.0,
            2243.0,
            2243.0,
            2245.0,
            2247.0,
            2248.0,
            2250.0,
            2251.0,
            2254.0,
            2254.0,
            2256.0,
            2257.0,
            2259.0,
            2261.0,
            2263.0,
            2265.0,
            2267.0,
            2267.0,
            2269.0,
            2270.0,
            2271.0,
            2273.0,
            2274.0,
            2276.0,
            2278.0,
            2280.0,
            2281.0,
            2283.0,
            2284.0,
            2286.0,
            2287.0,
            2289.0,
            2290.0,
            2293.0,
            2294.0,
            2295.0,
            2297.0,
            2299.0,
            2300.0,
            2302.0,
            2303.0,
            2304.0,
            2307.0,
            2309.0,
            2310.0,
            2311.0,
            2312.0,
            2314.0,
            2316.0,
            2317.0,
            2318.0,
            2320.0,
            2322.0,
            2323.0,
            2324.0,
            2326.0,
            2328.0,
            2329.0,
            2331.0
          ],
          [
            81.992,
            87.765,
            74.693,
            90.624,
            70.295,
            83.318,
            73.153,
            70.226,
            75.985,
            67.249,
            81.73,
            73.008,
            68.63,
            80.204,
            70.039,
            85.963,
            96.079,
            130.86,
            204.81,
            225.09,
            204.75,
            180.07,
            142.35,
            114.78,
            114.74,
            106.02,
            94.415,
            98.717,
            74.037,
            63.872,
            75.439,
            59.474,
            73.947,
            72.47,
            69.549,
            86.916,
            91.252,
            59.329,
            59.294,
            66.517,
            67.933,
            49.081,
            54.854,
            38.882,
            57.72,
            50.448,
            59.128,
            56.18,
            61.959,
            50.331,
            51.746,
            61.897,
            64.77,
            48.791,
            71.979,
            64.694,
            73.367,
            74.79,
            68.982,
            89.256,
            89.229,
            87.758,
            70.329,
            100.75,
            105.08,
            139.85,
            115.19,
            100.65,
            104.98,
            103.5,
            125.25,
            138.29,
            133.91,
            130.97,
            144.02,
            155.6,
            128.02,
            122.19,
            116.37,
            123.6,
            116.33,
            129.34,
            111.93,
            129.29,
            146.67,
            275.71,
            332.24,
            303.21,
            294.49,
            236.46,
            255.29,
            242.22,
            191.44,
            201.57,
            175.44,
            172.49,
            160.86,
            160.84,
            172.42,
            163.69,
            150.61,
            152.03,
            170.85,
            257.85,
            537.69,
            958.21,
            924.84,
            792.85,
            626.05,
            402.72,
            304.08,
            224.3,
            179.32,
            159.0,
            150.27,
            102.4,
            121.23,
            173.4,
            256.04,
            168.99,
            142.88,
            147.2,
            134.13,
            105.1,
            119.58,
            91.997,
            125.33,
            105.01,
            91.935,
            84.65,
            131.04,
            190.47,
            181.73,
            165.77,
            174.46,
            159.93,
            133.81,
            122.19,
            104.76,
            78.642,
            71.357,
            91.645,
            104.68,
            109.01,
            98.82,
            94.435,
            95.843,
            84.242,
            65.37,
            91.451,
            81.273,
            152.31,
            323.4,
            290.02,
            276.94,
            271.1,
            250.79,
            259.47,
            221.74,
            213.02,
            150.64,
            130.32,
            107.09,
            105.61,
            79.491,
            83.814,
            79.429,
            72.158,
            80.838,
            122.87,
            176.5,
            159.08,
            148.9,
            144.53,
            125.65,
            89.373,
            89.345,
            79.18,
            70.445,
            51.552,
            63.132,
            73.249,
            83.386,
            68.857,
            58.685,
            68.815,
            68.788,
            73.104,
            78.876,
            144.12,
            244.14,
            226.72,
            164.35,
            129.52,
            109.2,
            106.26,
            100.43,
            91.72,
            78.648,
            68.47,
            68.422,
            75.658,
            82.888,
            71.26,
            108.92,
            223.46,
            282.9,
            256.77,
            185.68,
            163.91,
            146.49,
            100.05,
            95.677,
            91.313,
            85.485,
            78.213,
            88.337,
            78.165,
            86.838,
            66.502,
            99.841,
            96.927,
            79.498,
            78.02,
            95.394,
            85.215,
            72.143,
            73.559,
            82.26,
            66.288,
            99.606,
            83.627,
            77.813,
            85.036,
            77.771,
            67.586,
            79.159,
            86.382,
            74.76,
            61.675,
            76.162,
            68.884,
            77.557,
            83.337,
            80.409,
            78.938,
            90.505,
            89.041,
            70.154,
            99.143,
            100.57,
            88.937,
            91.823,
            100.5,
            101.93,
            85.94,
            90.277,
            119.25,
            106.17,
            87.3,
            107.58,
            85.802,
            95.925,
            111.86,
            97.32,
            110.36,
            116.13,
            94.358,
            107.39,
            113.14,
            98.618,
            108.75,
            187.03,
            381.32,
            384.19,
            302.96,
            217.38,
            184.0,
            179.62,
            139.0,
            149.12,
            133.15,
            111.38,
            128.75,
            114.23,
            128.7,
            125.77,
            166.36,
            305.53,
            279.42,
            253.29,
            457.73,
            385.2,
            327.18,
            283.64,
            232.87,
            216.88,
            260.38,
            473.51,
            454.63,
            344.4,
            300.88,
            312.44,
            261.67,
            250.05,
            221.02,
            199.26,
            165.87,
            199.2,
            167.27,
            175.94,
            199.13,
            231.01,
            222.31,
            200.53,
            188.91,
            190.32,
            191.76,
            164.18,
            214.9,
            178.62,
            196.01,
            181.48,
            193.06,
            191.59,
            193.01,
            235.03,
            301.71,
            355.35,
            374.17,
            397.34,
            461.12,
            600.34,
            722.11,
            520.51,
            352.25,
            262.32,
            234.74,
            208.63,
            198.44,
            178.12,
            169.39,
            178.06,
            172.24,
            166.42,
            156.25,
            151.86,
            166.35,
            151.82,
            164.85,
            159.03,
            169.15,
            185.08,
            183.6,
            193.73,
            161.8,
            166.13,
            189.3,
            164.62,
            176.21,
            173.28,
            254.45,
            350.15,
            508.19,
            310.94,
            241.31,
            197.79,
            187.63,
            187.4,
            196.29,
            150.16,
            154.21,
            238.9,
            244.09,
            335.44,
            333.38,
            346.25,
            335.41,
            333.35,
            291.88,
            287.53,
            213.54,
            210.2,
            258.47,
            287.47,
            275.86,
            277.48,
            243.95,
            254.57,
            268.87,
            240.22,
            214.44,
            204.4,
            210.11,
            190.06,
            248.73,
            275.92,
            215.77,
            218.61,
            168.5,
            169.91,
            520.63,
            484.82,
            364.55,
            324.45,
            251.43,
            221.35,
            194.13,
            196.98,
            251.37,
            224.15,
            267.08,
            211.23,
            235.55,
            255.58,
            295.66,
            284.2,
            268.43,
            231.19,
            189.67,
            201.1,
            191.06,
            175.3,
            191.03,
            182.43,
            175.25,
            178.09,
            192.4,
            200.97,
            146.56,
            172.31,
            200.93,
            180.87,
            195.17,
            180.84,
            162.21,
            200.84,
            182.23,
            207.98,
            250.91,
            240.89,
            223.69,
            236.56,
            219.37,
            205.03,
            197.87,
            203.57,
            203.54,
            210.69,
            273.66,
            289.4,
            302.26,
            369.54,
            446.83,
            433.94,
            432.49,
            376.64,
            339.41,
            299.3,
            435.3,
            618.53,
            546.93,
            429.52,
            380.83,
            363.64,
            274.86,
            282.0,
            251.92,
            267.65,
            220.39,
            251.88,
            226.08,
            237.53,
            254.69,
            233.21,
            231.76,
            223.15,
            264.65,
            256.05,
            254.6,
            257.46,
            238.82,
            228.78,
            264.56,
            301.76,
            286.0,
            281.69,
            273.09,
            250.17,
            254.45,
            244.41,
            222.91,
            258.7,
            275.85,
            238.62,
            219.99,
            260.06,
            374.58,
            968.68,
            819.78,
            627.93,
            480.46,
            391.68,
            456.08,
            660.79,
            577.74,
            473.22,
            407.35,
            398.74,
            423.06,
            331.43,
            357.18,
            322.81,
            334.24,
            311.33,
            315.61,
            471.64,
            491.66,
            411.48,
            398.57,
            391.4,
            385.66,
            382.78,
            318.34,
            322.62,
            344.08,
            411.35,
            422.8,
            415.63,
            391.27,
            356.9,
            374.07,
            365.46,
            495.73,
            721.9,
            594.48,
            498.54,
            455.58,
            428.36,
            393.98,
            362.47,
            386.8,
            386.78,
            352.4,
            353.82,
            359.53,
            379.56,
            350.91,
            428.21,
            380.95,
            405.26,
            389.5,
            388.06,
            362.27,
            355.1,
            375.13,
            409.47,
            493.92,
            539.72,
            529.68,
            478.13,
            438.02,
            519.61,
            505.28,
            463.75,
            407.9,
            362.07,
            403.57,
            372.06,
            383.5,
            390.63,
            399.21,
            384.89,
            409.21,
            422.07,
            424.92,
            389.12,
            406.28,
            403.4,
            374.75,
            403.37,
            427.69,
            403.33,
            366.1,
            486.34,
            462.0,
            477.74,
            420.46,
            436.19,
            712.48,
            721.04,
            615.1,
            493.4,
            456.15,
            613.62,
            540.58,
            487.61,
            411.71,
            431.74,
            371.6,
            375.88,
            411.65,
            385.86,
            400.16,
            370.08,
            365.78,
            372.93,
            600.53,
            720.78,
            732.21,
            564.69,
            521.73,
            478.77,
            427.22,
            424.33,
            430.05,
            472.97,
            646.19,
            591.77,
            535.92,
            505.84,
            480.06,
            388.42,
            394.12,
            395.53,
            414.14,
            382.63,
            425.56,
            361.12,
            389.74,
            406.91,
            362.51,
            375.38,
            345.3,
            381.07,
            409.69,
            372.45,
            358.11,
            362.41,
            401.05,
            385.28,
            448.25,
            495.48,
            492.59,
            459.65,
            429.57,
            461.04,
            495.39,
            481.05,
            445.25,
            453.82,
            486.73,
            440.91,
            462.37,
            395.07,
            430.84,
            403.61,
            442.26,
            495.22,
            443.66,
            450.8,
            440.77,
            453.63,
            429.29,
            420.68,
            413.5,
            409.19,
            404.89,
            513.68,
            462.12,
            459.24,
            539.4,
            555.13,
            493.55,
            509.28,
            506.4,
            453.43,
            449.12,
            509.22,
            523.54,
            513.5,
            489.15,
            467.66,
            660.91,
            690.95,
            625.09,
            519.13,
            480.46,
            433.21,
            467.54,
            468.97,
            423.14,
            413.1,
            466.06,
            468.9,
            464.6,
            523.27,
            444.51,
            407.28,
            453.08,
            483.13,
            443.03,
            441.58,
            457.3,
            455.86,
            490.21,
            491.62,
            480.16,
            481.57,
            448.63,
            481.53,
            401.35,
            450.01,
            447.14,
            497.22,
            553.04,
            773.49,
            946.69,
            840.74,
            671.8,
            583.02,
            601.62,
            527.16,
            495.66,
            492.78,
            518.53,
            489.88,
            528.51,
            481.25,
            485.53,
            464.05,
            448.27,
            514.12,
            462.56,
            514.09,
            591.37,
            555.57,
            496.86,
            515.46,
            539.77,
            536.9,
            597.01,
            741.59,
            763.06,
            1125.0,
            976.32,
            793.06,
            642.73,
            532.48,
            513.85,
            510.97,
            605.44,
            665.56,
            561.04,
            575.33,
            509.47,
            512.31,
            470.78,
            523.74,
            457.87,
            457.85
          ]
        ]
      }
    },
    "003": {
      "common": {
        "heads": [
          "EN",
          "E-ERR-DIG",
          "ERR-DIG"
        ],
        "units": [
          "KEV",
          "MEV",
          "ARB-UNITS"
        ],
        "data": [
          [
            1394.0
          ],
          [
            0.004
          ],
          [
            0.576
          ]
        ]
      },
      "data": {
        "heads": [
          "E",
          "DATA"
        ],
        "units": [
          "MEV",
          "ARB-UNITS"
        ],
        "data": [
          [
            0.4291,
            0.4345,
            0.4426,
            0.4506,
            0.4533,
            0.4618,
            0.4657,
            0.4694,
            0.4729,
            0.4757,
            0.4794,
            0.4828,
            0.5015,
            0.5093,
            0.52,
            0.5254,
            0.5319,
            0.5345,
            0.5407,
            0.5438,
            0.5473,
            0.548,
            0.5493,
            0.5575,
            0.5707,
            0.5761,
            0.5893,
            0.592,
            0.6,
            0.6132,
            0.6211,
            0.6239,
            0.6342,
            0.6415,
            0.6467,
            0.6526,
            0.6531,
            0.6558,
            0.6691,
            0.6744,
            0.6876,
            0.6983,
            0.7063,
            0.7222,
            0.7381,
            0.7514,
            0.7675,
            0.7755,
            0.7783,
            0.7942,
            0.8017,
            0.8048,
            0.8102,
            0.818,
            0.8234,
            0.8366,
            0.8394,
            0.8526,
            0.858,
            0.8632,
            0.8711,
            0.8792,
            0.8924,
            0.8926,
            0.9006,
            0.9112,
            0.9219,
            0.9234,
            0.9274,
            0.9406,
            0.9537,
            0.9565,
            0.9697,
            0.9777,
            0.9909,
            0.999,
            1.007,
            1.015,
            1.0204,
            1.0335,
            1.0363,
            1.0468,
            1.0549,
            1.0655,
            1.0694,
            1.0732,
            1.0758,
            1.0806,
            1.0884,
            1.0966,
            1.0972,
            1.1027,
            1.1105,
            1.1212,
            1.1291,
            1.1319,
            1.1339,
            1.1465,
            1.1509,
            1.1527,
            1.1553,
            1.1612,
            1.1742,
            1.177,
            1.1823,
            1.193,
            1.2061,
            1.2141,
            1.2222,
            1.2301,
            1.2513,
            1.2698,
            1.2752,
            1.2937,
            1.2965,
            1.3123,
            1.3126,
            1.3309,
            1.3338,
            1.3391,
            1.3524,
            1.3602,
            1.3656,
            1.3789,
            1.3895,
            1.4025,
            1.4107,
            1.4213,
            1.4292,
            1.4425,
            1.4426,
            1.456,
            1.4594,
            1.4612,
            1.4632,
            1.4683,
            1.4732,
            1.4766,
            1.4814,
            1.4823,
            1.4911,
            1.5009,
            1.5065,
            1.5107,
            1.5205,
            1.5286,
            1.5295,
            1.53,
            1.5373,
            1.5381,
            1.5433,
            1.5568,
            1.562,
            1.567,
            1.5696,
            1.5743,
            1.5857,
            1.5858,
            1.5939,
            1.6017,
            1.6097,
            1.615,
            1.6284,
            1.6415,
            1.6546,
            1.6602,
            1.6682,
            1.6814,
            1.6895,
            1.7052,
            1.7081,
            1.7159,
            1.7266,
            1.7345,
            1.7452,
            1.7531,
            1.7637,
            1.7714,
            1.7872,
            1.7874,
            1.7929,
            1.8062,
            1.8194,
            1.838,
            1.8407,
            1.8512,
            1.8593,
            1.8644,
            1.8751,
            1.8831,
            1.891,
            1.899,
            1.9043,
            1.9095,
            1.917,
            1.9304,
            1.9306,
            1.9361,
            1.9494,
            1.9627,
            1.9686,
            1.9785,
            1.9812,
            1.9842,
            1.9865,
            1.9897,
            1.9962,
            2.0039,
            2.0122,
            2.0132,
            2.0154,
            2.0281,
            2.0298,
            2.0315,
            2.0448,
            2.0528,
            2.066,
            2.0739,
            2.0846,
            2.087,
            2.1005,
            2.1057,
            2.1163,
            2.1298,
            2.1348,
            2.1429,
            2.1561,
            2.1613,
            2.1692,
            2.1746,
            2.1931,
            2.1958,
            2.209,
            2.2115,
            2.2223,
            2.2248,
            2.2355,
            2.246,
            2.2541,
            2.2648,
            2.27,
            2.2805,
            2.2939,
            2.3099,
            2.3178,
            2.3207,
            2.3338,
            2.342,
            2.3524,
            2.3632,
            2.3686,
            2.3844,
            2.3951,
            2.403,
            2.4136,
            2.4215,
            2.4268,
            2.4377,
            2.4457,
            2.4562,
            2.4641,
            2.4748,
            2.4799,
            2.4906,
            2.4985,
            2.5007,
            2.5055,
            2.5102,
            2.5158,
            2.5295,
            2.5311,
            2.5433,
            2.5491,
            2.5503,
            2.5511,
            2.5517,
            2.573,
            2.5755,
            2.5888,
            2.594,
            2.5994,
            2.6073,
            2.6158,
            2.6209,
            2.628,
            2.6356,
            2.6457,
            2.6468,
            2.6491,
            2.655,
            2.671,
            2.6867,
            2.6974,
            2.7106,
            2.7186,
            2.7318,
            2.7318,
            2.7399,
            2.7529,
            2.7609,
            2.7667,
            2.7742,
            2.7928,
            2.7983,
            2.8011,
            2.8124,
            2.8223,
            2.8302,
            2.8409,
            2.8464,
            2.8569,
            2.8675,
            2.8754,
            2.8835,
            2.8995,
            2.9076,
            2.9155,
            2.9288,
            2.9369,
            2.9447,
            2.9607,
            2.9712,
            2.9819,
            2.9871,
            3.0084,
            3.0125,
            3.0181,
            3.0198,
            3.0264,
            3.0307,
            3.0458,
            3.0464,
            3.0474,
            3.048,
            3.0485,
            3.0509,
            3.0562,
            3.0613,
            3.0738,
            3.0793,
            3.0821,
            3.0842,
            3.088,
            3.0987,
            3.1145,
            3.1195,
            3.1199,
            3.1332,
            3.1343,
            3.1354,
            3.1539,
            3.1567,
            3.1621,
            3.1623,
            3.1756,
            3.1783,
            3.1836,
            3.1968,
            3.2022,
            3.2042,
            3.2074,
            3.2313,
            3.2366,
            3.2445,
            3.2551,
            3.2684,
            3.2737,
            3.2789,
            3.2868,
            3.2948,
            3.3054,
            3.3161,
            3.3241,
            3.3321,
            3.3427,
            3.3534,
            3.364,
            3.3692,
            3.3852,
            3.3931,
            3.4009,
            3.4061,
            3.4141,
            3.4195,
            3.4354,
            3.4409,
            3.4541,
            3.4594,
            3.4674,
            3.4832,
            3.486,
            3.5018,
            3.523,
            3.5257,
            3.5311,
            3.547,
            3.5576,
            3.5629,
            3.568,
            3.5705,
            3.5785,
            3.584,
            3.5841,
            3.5895,
            3.6027,
            3.6106,
            3.6107,
            3.6266,
            3.6319,
            3.6371,
            3.6385,
            3.6391,
            3.6444,
            3.6495,
            3.6603,
            3.6634,
            3.6659,
            3.667,
            3.6821,
            3.6873,
            3.6886,
            3.6889,
            3.6936,
            3.7035,
            3.7047,
            3.7232,
            3.7243,
            3.7259,
            3.7262,
            3.7272,
            3.7292,
            3.7346,
            3.7379,
            3.7458,
            3.7485,
            3.7591,
            3.7696,
            3.7828,
            3.7855,
            3.7987,
            3.8015,
            3.8121,
            3.8227,
            3.8385,
            3.8413,
            3.8572,
            3.8625,
            3.8679,
            3.8784,
            3.8891,
            3.897,
            3.9048,
            3.9155,
            3.9235,
            3.9367,
            3.95,
            3.958,
            3.9712,
            3.9766,
            3.9951,
            4.0031,
            4.0296,
            4.0323,
            4.0429,
            4.0482,
            4.0615,
            4.0666,
            4.0718,
            4.0744,
            4.0826,
            4.0846,
            4.0855,
            4.096,
            4.1067,
            4.1119,
            4.1199,
            4.1359,
            4.1438,
            4.1744,
            4.1797,
            4.1956,
            4.1975,
            4.2012,
            4.2024,
            4.2027,
            4.2077,
            4.2156,
            4.2158,
            4.2187,
            4.2239,
            4.2289,
            4.2318,
            4.2356,
            4.2375,
            4.2403,
            4.2406,
            4.2485,
            4.2643,
            4.2697,
            4.275,
            4.2856,
            4.291,
            4.3041,
            4.312,
            4.3253,
            4.3333,
            4.336,
            4.3439,
            4.3545,
            4.3625,
            4.373,
            4.3783,
            4.3889,
            4.4128,
            4.4154,
            4.4234,
            4.4287,
            4.4419,
            4.4498,
            4.4578,
            4.4657,
            4.4762,
            4.4843,
            4.4896,
            4.5028,
            4.5056,
            4.5188,
            4.5241,
            4.5347,
            4.5453,
            4.5506,
            4.5586,
            4.5666,
            4.5771,
            4.5825,
            4.5878,
            4.6037,
            4.6169,
            4.6249,
            4.6249,
            4.6409,
            4.6514,
            4.6594,
            4.662,
            4.6727,
            4.6912,
            4.6938,
            4.7017,
            4.7028,
            4.7066,
            4.7091,
            4.7278,
            4.7291,
            4.73,
            4.735,
            4.7487,
            4.7515,
            4.7571,
            4.7573,
            4.7598,
            4.7654,
            4.776,
            4.776,
            4.7865,
            4.7972,
            4.8103,
            4.813,
            4.8183,
            4.8316,
            4.8369,
            4.8528,
            4.8607,
            4.8766,
            4.8846,
            4.9005,
            4.9137,
            4.9296,
            4.9455,
            4.9561,
            4.9667,
            4.9773,
            4.9799,
            4.9906,
            5.0091,
            5.033,
            5.0462,
            5.0568,
            5.0675,
            5.0727,
            5.0806,
            5.0912,
            5.1017,
            5.1202,
            5.1216,
            5.123,
            5.1257,
            5.1389,
            5.1548,
            5.1628,
            5.176,
            5.1813,
            5.1867,
            5.1946,
            5.1998,
            5.2104,
            5.2155,
            5.2208,
            5.2366,
            5.2367,
            5.2395,
            5.2474,
            5.2502,
            5.253,
            5.2583,
            5.2635,
            5.2714,
            5.2767,
            5.2873,
            5.2952,
            5.3057,
            5.3111,
            5.3243,
            5.3296,
            5.335,
            5.3456,
            5.3668,
            5.3774,
            5.396,
            5.4224,
            5.4277,
            5.441,
            5.4542,
            5.4649,
            5.4701,
            5.4887,
            5.5046,
            5.5204,
            5.5257,
            5.5258,
            5.5416,
            5.5549,
            5.5734,
            5.5867,
            5.5946,
            5.6052,
            5.6184,
            5.6264,
            5.6397,
            5.6502,
            5.6635,
            5.6821,
            5.69,
            5.7112,
            5.7244,
            5.743,
            5.7589,
            5.7695,
            5.7853,
            5.7933,
            5.8039,
            5.8145,
            5.8198,
            5.8224,
            5.8409,
            5.8541,
            5.8569,
            5.8601,
            5.8675,
            5.8834,
            5.8993,
            5.9098,
            5.9231,
            5.9284,
            5.9416,
            5.9523,
            5.9602,
            5.9655,
            5.984,
            5.9893,
            6.0105,
            6.0291,
            6.0423,
            6.0476,
            6.0688,
            6.0767,
            6.0953,
            6.1032,
            6.1191,
            6.1403,
            6.1536,
            6.1695,
            6.188,
            6.2092,
            6.2251,
            6.2437,
            6.2542,
            6.2648,
            6.2728,
            6.2887,
            6.294,
            6.3098,
            6.3125,
            6.3231,
            6.3549,
            6.3734,
            6.384,
            6.3867,
            6.3973,
            6.4026,
            6.429,
            6.437,
            6.4555,
            6.4688,
            6.4847,
            6.5032,
            6.5191,
            6.543,
            6.5668,
            6.5774,
            6.5907,
            6.6065,
            6.6171,
            6.6357,
            6.6489,
            6.6754,
            6.694,
            6.6966,
            6.7018,
            6.7018,
            6.7039,
            6.7042,
            6.712,
            6.7331,
            6.7385,
            6.7439,
            6.7441,
            6.7521,
            6.7575,
            6.7654,
            6.7655,
            6.7734,
            6.7919,
            6.7972,
            6.8184,
            6.8211,
            6.8343,
            6.8529,
            6.8608,
            6.8767,
            6.8979,
            6.8979,
            6.9111,
            6.9297,
            6.9403,
            6.9536,
            6.9641,
            6.9827,
            7.0012,
            7.0065,
            7.0171,
            7.0304,
            7.0436,
            7.0648,
            7.0701,
            7.078,
            7.0807,
            7.0965,
            7.1045,
            7.1205,
            7.1443,
            7.1628,
            7.1708,
            7.1814,
            7.1893,
            7.2052,
            7.2078,
            7.2104,
            7.2183,
            7.2235,
            7.2263,
            7.2289,
            7.2368,
            7.2449,
            7.2449,
            7.245,
            7.2582,
            7.2688,
            7.2767,
            7.29,
            7.3006,
            7.3191,
            7.3271,
            7.3403,
            7.3536,
            7.3695,
            7.3907,
            7.4013,
            7.4145,
            7.433,
            7.4489,
            7.4542,
            7.4754,
            7.4754,
            7.4913,
            7.5045,
            7.5231,
            7.5337,
            7.5523,
            7.5655,
            7.5894,
            7.6052,
            7.6211,
            7.6291,
            7.6556,
            7.6768,
            7.69,
            7.7086,
            7.7112,
            7.7164,
            7.7403,
            7.7483,
            7.7483,
            7.7668,
            7.7907,
            7.8066,
            7.8251,
            7.8463,
            7.8648
          ],
          [
            281.83,
            269.72,
            251.55,
            240.65,
            232.17,
            240.68,
            260.08,
            357.04,
            469.77,
            438.27,
            294.04,
            188.58,
            175.27,
            189.83,
            175.3,
            169.25,
            181.38,
            380.17,
            631.08,
            711.09,
            480.81,
            255.35,
            159.59,
            131.72,
            137.8,
            128.11,
            134.19,
            128.13,
            122.08,
            134.23,
            130.6,
            116.06,
            164.56,
            260.33,
            274.88,
            186.4,
            118.53,
            107.62,
            104.0,
            95.528,
            106.46,
            99.199,
            95.574,
            94.385,
            90.772,
            95.64,
            222.98,
            216.93,
            204.81,
            210.27,
            243.61,
            207.86,
            204.22,
            210.9,
            207.26,
            213.94,
            201.82,
            207.89,
            201.84,
            205.48,
            209.72,
            200.64,
            205.5,
            187.92,
            184.9,
            189.75,
            184.31,
            209.77,
            170.98,
            174.62,
            185.54,
            174.03,
            178.89,
            172.23,
            177.08,
            171.03,
            169.22,
            165.59,
            154.08,
            168.02,
            154.69,
            166.22,
            157.74,
            153.5,
            157.15,
            174.11,
            178.96,
            215.94,
            226.25,
            208.07,
            162.62,
            154.14,
            158.99,
            154.15,
            159.0,
            146.28,
            195.37,
            239.62,
            212.36,
            178.41,
            159.02,
            140.85,
            162.07,
            151.16,
            146.32,
            141.48,
            150.58,
            147.55,
            143.31,
            147.56,
            147.58,
            149.41,
            144.57,
            146.4,
            141.55,
            145.2,
            127.62,
            141.58,
            126.43,
            130.07,
            125.83,
            136.14,
            131.9,
            124.64,
            130.1,
            145.87,
            128.3,
            131.95,
            135.59,
            130.75,
            123.48,
            115.0,
            125.31,
            140.46,
            168.95,
            185.92,
            214.41,
            203.51,
            145.93,
            130.17,
            112.61,
            128.37,
            151.41,
            182.31,
            242.93,
            235.05,
            166.57,
            136.27,
            111.43,
            124.15,
            129.61,
            115.68,
            119.93,
            139.32,
            167.81,
            187.21,
            135.1,
            124.19,
            118.74,
            123.59,
            127.24,
            123.0,
            113.92,
            126.05,
            138.78,
            114.55,
            110.31,
            115.17,
            111.54,
            121.85,
            107.91,
            115.8,
            110.96,
            113.99,
            108.55,
            113.4,
            115.83,
            130.38,
            137.06,
            122.52,
            111.01,
            106.77,
            110.42,
            109.22,
            104.98,
            117.11,
            106.21,
            116.51,
            112.88,
            107.44,
            111.08,
            113.51,
            111.69,
            118.36,
            154.13,
            144.44,
            130.5,
            111.72,
            111.12,
            106.89,
            109.32,
            117.81,
            110.54,
            130.55,
            158.43,
            265.09,
            366.91,
            383.28,
            360.25,
            245.71,
            136.02,
            170.57,
            142.09,
            121.48,
            120.89,
            116.04,
            119.69,
            123.94,
            119.1,
            136.07,
            120.32,
            125.17,
            128.82,
            110.65,
            130.65,
            117.32,
            125.21,
            130.06,
            137.34,
            131.89,
            136.75,
            132.51,
            135.55,
            150.1,
            134.35,
            143.44,
            136.18,
            142.85,
            136.8,
            131.96,
            136.81,
            141.67,
            135.61,
            124.72,
            128.97,
            117.45,
            123.52,
            108.98,
            127.17,
            111.42,
            107.19,
            112.05,
            105.99,
            110.85,
            107.82,
            113.89,
            118.14,
            96.327,
            93.908,
            98.765,
            101.8,
            97.566,
            109.69,
            104.85,
            109.1,
            141.22,
            174.56,
            217.59,
            195.78,
            170.94,
            245.48,
            320.04,
            280.65,
            241.26,
            141.86,
            97.016,
            95.214,
            101.88,
            97.044,
            104.93,
            102.51,
            107.36,
            110.4,
            128.58,
            141.92,
            165.56,
            207.39,
            171.64,
            149.81,
            111.03,
            104.98,
            116.51,
            113.49,
            118.95,
            115.32,
            120.18,
            114.72,
            110.49,
            126.86,
            120.2,
            129.91,
            118.39,
            117.19,
            101.44,
            92.957,
            89.942,
            95.396,
            97.826,
            96.016,
            82.081,
            87.543,
            83.915,
            88.769,
            77.866,
            73.635,
            64.55,
            68.798,
            65.172,
            55.481,
            67.002,
            62.165,
            66.415,
            61.574,
            67.639,
            61.594,
            97.964,
            129.48,
            199.78,
            291.3,
            367.67,
            427.07,
            356.16,
            235.56,
            100.41,
            64.651,
            57.383,
            61.629,
            75.572,
            127.7,
            113.77,
            104.07,
            51.344,
            65.894,
            58.024,
            63.49,
            61.069,
            57.433,
            51.988,
            67.143,
            86.535,
            91.397,
            82.914,
            75.039,
            58.07,
            61.11,
            56.87,
            53.843,
            56.883,
            53.251,
            49.015,
            56.891,
            60.545,
            56.913,
            62.979,
            66.017,
            62.996,
            57.546,
            66.034,
            69.676,
            66.046,
            69.69,
            65.455,
            63.037,
            54.558,
            58.202,
            55.18,
            55.188,
            58.828,
            54.597,
            61.269,
            69.76,
            74.006,
            70.982,
            66.137,
            69.179,
            56.456,
            58.89,
            57.682,
            59.506,
            61.335,
            57.095,
            60.743,
            61.365,
            56.518,
            53.492,
            57.14,
            51.693,
            55.939,
            71.7,
            78.975,
            75.95,
            65.652,
            55.955,
            48.686,
            52.332,
            56.58,
            52.944,
            49.925,
            55.99,
            63.266,
            74.783,
            105.09,
            109.94,
            119.64,
            108.74,
            77.225,
            62.072,
            56.011,
            63.905,
            76.03,
            100.88,
            149.97,
            196.03,
            244.52,
            349.98,
            354.23,
            320.9,
            257.26,
            137.87,
            97.263,
            68.781,
            63.33,
            60.31,
            65.164,
            57.287,
            64.568,
            70.636,
            73.676,
            70.041,
            75.506,
            65.205,
            68.243,
            65.826,
            70.686,
            65.234,
            67.67,
            65.249,
            54.951,
            67.079,
            60.421,
            63.457,
            71.947,
            67.106,
            67.718,
            69.546,
            69.556,
            66.531,
            67.753,
            64.727,
            64.741,
            66.564,
            67.19,
            59.919,
            62.957,
            65.991,
            56.911,
            73.884,
            78.736,
            85.404,
            72.077,
            67.841,
            52.686,
            56.33,
            52.701,
            60.584,
            56.347,
            50.904,
            56.971,
            50.002,
            56.177,
            51.246,
            58.657,
            91.991,
            131.5,
            153.1,
            188.29,
            195.08,
            164.22,
            133.97,
            145.71,
            179.05,
            185.84,
            135.84,
            103.74,
            83.984,
            51.267,
            64.851,
            67.945,
            63.626,
            61.777,
            55.609,
            51.29,
            60.556,
            63.029,
            59.948,
            58.1,
            46.99,
            57.488,
            54.406,
            51.323,
            59.353,
            53.8,
            57.509,
            56.902,
            52.583,
            49.5,
            55.675,
            53.212,
            68.031,
            58.158,
            64.334,
            72.364,
            59.405,
            53.234,
            56.327,
            43.365,
            47.692,
            49.546,
            42.144,
            44.618,
            40.299,
            39.686,
            34.134,
            39.694,
            30.437,
            32.909,
            31.064,
            34.157,
            31.074,
            24.901,
            21.822,
            26.765,
            18.127,
            23.684,
            19.985,
            17.524,
            23.081,
            34.196,
            57.656,
            74.323,
            92.225,
            83.592,
            116.93,
            136.06,
            165.7,
            145.95,
            91.627,
            65.704,
            32.987,
            23.727,
            19.411,
            16.329,
            19.415,
            24.359,
            20.043,
            36.098,
            30.544,
            26.225,
            23.762,
            18.826,
            21.303,
            21.306,
            24.4,
            21.318,
            21.325,
            23.183,
            23.19,
            20.728,
            25.054,
            20.738,
            25.064,
            21.362,
            18.897,
            18.906,
            17.682,
            16.454,
            13.372,
            10.291,
            19.553,
            22.643,
            26.969,
            30.677,
            33.155,
            24.515,
            18.959,
            14.639,
            14.645,
            19.591,
            10.952,
            15.897,
            12.195,
            7.2595,
            10.35,
            16.525,
            21.468,
            39.372,
            46.782,
            51.728,
            43.703,
            22.099,
            28.893,
            14.079,
            10.987,
            6.668,
            10.382,
            7.2987,
            11.622,
            8.5407,
            12.248,
            23.364,
            19.046,
            23.99,
            17.202,
            11.032,
            7.9503,
            8.5774,
            6.7304,
            6.739,
            10.455,
            7.371,
            9.8463,
            6.766,
            3.6844,
            8.0079,
            8.0165,
            8.0238,
            11.735,
            7.4164,
            3.7126,
            6.8064,
            5.578,
            9.2903,
            8.6791,
            7.4482,
            8.0704,
            13.632,
            9.9321,
            7.469,
            7.4739,
            6.2455,
            4.4022,
            5.6405,
            7.5021,
            7.5083,
            5.0477,
            7.5242,
            5.0599,
            7.5364,
            3.2191,
            7.545,
            4.4635,
            9.4042,
            14.344,
            14.352,
            16.21,
            9.4214,
            14.366,
            6.9571,
            5.7299,
            3.2681,
            7.594,
            6.9829,
            3.2816,
            6.9914,
            2.058,
            2.679,
            8.8543,
            3.9246,
            7.0135,
            5.1714,
            3.9454,
            7.038,
            2.7194,
            3.9638,
            7.6712,
            7.0625,
            5.2143,
            6.4563,
            6.4661,
            3.3857,
            5.8622,
            4.0189,
            5.8806,
            4.6534,
            2.8101,
            6.5187,
            4.0545,
            7.7619,
            6.5347,
            4.068,
            8.3964,
            4.6938,
            6.5506,
            4.7134,
            6.5739,
            5.3442,
            8.4319,
            6.5849,
            5.9701,
            10.921,
            7.2206,
            8.4637,
            9.0872,
            8.4772,
            7.2512,
            6.024,
            6.035,
            7.2806,
            7.2855,
            5.4398,
            7.9163,
            5.452,
            4.8433,
            6.084,
            5.479,
            4.253,
            9.8098,
            14.751,
            20.924,
            36.358,
            45.616,
            70.312,
            74.643,
            68.472,
            48.721,
            25.264,
            20.33,
            9.2207,
            11.076,
            7.3725,
            12.932,
            10.471,
            8.6218,
            11.718,
            9.2501,
            7.4044,
            4.9438,
            9.2685,
            12.362,
            12.989,
            4.9646,
            9.9091,
            12.387,
            9.9226,
            4.9904,
            6.2298,
            6.8557,
            9.9507,
            8.1013,
            10.575,
            6.8778,
            10.588,
            9.9802,
            4.427,
            10.604,
            3.1973,
            11.847,
            7.5294,
            4.4503,
            4.4613,
            3.2353,
            6.9427,
            5.0957,
            3.2475,
            6.3414,
            11.898,
            18.072,
            25.484,
            31.042,
            14.993,
            21.785,
            27.344,
            14.385,
            10.063,
            3.8906,
            5.1313,
            3.2843,
            4.5226,
            3.9114,
            2.0644,
            6.394,
            3.3113,
            3.9347,
            0.8544,
            2.7136,
            3.958,
            2.111,
            5.2036,
            3.9776,
            6.4541,
            1.5182,
            5.2318,
            2.1453,
            1.5354,
            5.2452,
            3.4019,
            0.3204,
            2.1808,
            1.5697,
            0.3461,
            0.9708,
            0.3608,
            4.0682,
            0.994,
            1.0038,
            1.01,
            1.0185,
            5.9581,
            10.899,
            9.6753,
            5.358,
            1.6542,
            1.0455,
            2.2911,
            1.6812,
            1.6897,
            1.6996,
            1.0908
          ]
        ]
      }
    }
  },
  "experimental_conditions": {
    "001": {
      "0": {
        "err-analys": [
          {
            "x4_code": "(ERR-DIG)",
            "free_txt": [
              "   Data digitizing error"
            ]
          }
        ],
        "facility": [
          {
            "x4_code": "(VDG)",
            "free_txt": []
          }
        ],
        "method": [
          {
            "x4_code": "(GSPEC)",
            "free_txt": []
          }
        ],
        "sample": [
          {
            "x4_code": null,
            "free_txt": [
              "Argon gas, enriched to 25% was used to produce",
              "isotopically pure targets of 38Ar. The ions had an",
              "energy of 45 keV. The target thickness turned out to",
              "be 4.5 keV for 1.4 MeV protons. Argon targets in",
              "tantalum produced at 45 keV ion energy have a",
              "saturation value of 3.7 mu-g/cm2 of argon gas."
            ]
          }
        ]
      }
    },
    "002": {
      "0": {
        "detector": [
          {
            "x4_code": "(NAICR)",
            "free_txt": [
              " 10*10 cm NaI crystal was used."
            ]
          }
        ],
        "en-sec": [
          {
            "x4_code": null,
            "free_txt": [
              "Gamma rays of the energy 2.0-9.0 MeV were detected."
            ]
          }
        ],
        "err-analys": [
          {
            "x4_code": "(EN-ERR-DIG)",
            "free_txt": [
              " Energy digitizing error"
            ]
          }
        ],
        "status": [
          {
            "x4_code": "(CURVE)",
            "free_txt": [
              " Fig. 1"
            ]
          }
        ]
      }
    },
    "003": {
      "0": {
        "detector": [
          {
            "x4_code": "(GELI)",
            "free_txt": [
              " A 50 cm2 Ge(Li) detector at a distance of 1.5 cm",
              "from target to front of crystal was used."
            ]
          }
        ],
        "err-analys": [
          {
            "x4_code": "(E-ERR-DIG)",
            "free_txt": [
              " Energy digitizing error"
            ]
          }
        ],
        "method": [
          {
            "x4_code": "(PHD)",
            "free_txt": []
          }
        ],
        "status": [
          {
            "x4_code": "(CURVE)",
            "free_txt": [
              " Fig. 2"
            ]
          }
        ]
      }
    }
  }
}