{
  "entry": "21968",
  "last_updated": "2023-05-23",
  "number_of_revisions": "4",
  "histories": [
    {
      "x4_code": "(850909C)",
      "free_txt": [
        " BN."
      ]
    },
    {
      "x4_code": "(860106E)",
      "free_txt": []
    }
  ],
  "bib_record": {
    "title": "-MEASUREMENT OF THE LI-6(N,ALPHA)/B-10(N,ALPHA) RATIO WITH A XENON GAS SCINTILLATOR-",
    "authors": [
      {
        "name": "C.Bastian"
      },
      {
        "name": "H.Riemenschneider"
      }
    ],
    "institutes": [
      {
        "x4_code": "(2ZZZGEL)",
        "free_txt": []
      }
    ],
    "references": [
      {
        "x4_code": "(R,IAEA-335,118,8411)",
        "free_txt": [
          " IAEA-TECDOC-335.",
          " PROCEEDINGS OF AN ADVISORY GROUP MEETING ON",
          " NUCLEAR STANDARD REFERENCE DATA, HELD AT",
          " CBNM, GEEL, 12-16 NOVEMBER 1984."
        ],
        "publication_year": "1984",
        "doi": null,
        "pointer": "0"
      }
    ],
    "facilities": [
      {
        "x4_code": "(LINAC,2ZZZGEL)",
        "free_txt": [
          "  ELECTRON ACCELERATOR GELINA"
        ],
        "pointer": "0",
        "facility_type": "(LINAC)",
        "institute": "(2ZZZGEL)"
      }
    ]
  },
  "reactions": {
    "002": {
      "0": {
        "x4_code": "((3-LI-6(N,T)2-HE-4,,SIG)/(5-B-10(N,A)3-LI-7,,SIG))",
        "children": [
          {
            "code": [
              "3-LI-6",
              [
                "N,T"
              ],
              "2-HE-4,,SIG"
            ],
            "type": null,
            "target": "3-LI-6",
            "process": "N,T",
            "sf49": "2-HE-4,,SIG",
            "sf4": "2-HE-4",
            "sf5": null,
            "sf6": "SIG",
            "sf7": null,
            "sf8": null,
            "sf9": null
          },
          {
            "code": [
              "5-B-10",
              [
                "N,A"
              ],
              "3-LI-7,,SIG"
            ],
            "type": null,
            "target": "5-B-10",
            "process": "N,A",
            "sf49": "3-LI-7,,SIG",
            "sf4": "3-LI-7",
            "sf5": null,
            "sf6": "SIG",
            "sf7": null,
            "sf8": null,
            "sf9": null
          }
        ],
        "type": "/",
        "free_text": "",
        "pointer": "0"
      }
    }
  },
  "data_tables": {
    "001": {
      "common": null
    },
    "002": {
      "common": null,
      "data": {
        "heads": [
          "EN-MIN",
          "EN-MAX",
          "DATA",
          "DATA-ERR1",
          "DATA-ERR2",
          "ERR-T"
        ],
        "units": [
          "EV",
          "EV",
          "NO-DIM",
          "PER-CENT",
          "PER-CENT",
          "PER-CENT"
        ],
        "data": [
          [
            2.485,
            2.524,
            2.564,
            2.605,
            2.648,
            2.691,
            2.735,
            2.78,
            2.827,
            2.874,
            2.923,
            2.973,
            3.025,
            3.077,
            3.132,
            3.187,
            3.244,
            3.303,
            3.363,
            3.425,
            3.488,
            3.554,
            3.621,
            3.69,
            3.761,
            3.835,
            3.91,
            3.988,
            4.068,
            4.15,
            4.235,
            4.323,
            4.413,
            4.506,
            4.602,
            4.702,
            4.804,
            4.91,
            5.019,
            5.133,
            5.25,
            5.371,
            5.496,
            5.626,
            5.76,
            5.9,
            6.044,
            6.081,
            6.118,
            6.156,
            6.194,
            6.213,
            6.232,
            6.251,
            6.271,
            6.29,
            6.31,
            6.33,
            6.349,
            6.369,
            6.389,
            6.409,
            6.429,
            6.449,
            6.47,
            6.49,
            6.51,
            6.678,
            6.852,
            6.874,
            6.897,
            6.919,
            6.942,
            6.964,
            6.987,
            7.01,
            7.033,
            7.056,
            7.08,
            7.103,
            7.126,
            7.15,
            7.174,
            7.198,
            7.221,
            7.27,
            7.319,
            7.368,
            7.417,
            7.518,
            7.622,
            7.834,
            8.056,
            8.287,
            8.528,
            8.78,
            8.91,
            9.043,
            9.111,
            9.179,
            9.248,
            9.318,
            9.389,
            9.461,
            9.533,
            9.606,
            9.68,
            9.755,
            9.831,
            9.908,
            9.947,
            9.986,
            10.02,
            10.06,
            10.14,
            10.22,
            10.39,
            10.56,
            10.73,
            10.9,
            11.08,
            11.27,
            11.46,
            11.65,
            11.85,
            12.06,
            12.27,
            12.48,
            12.7,
            12.93,
            13.16,
            13.4,
            13.65,
            13.77,
            13.9,
            13.97,
            14.03,
            14.1,
            14.16,
            14.29,
            14.43,
            14.46,
            14.5,
            14.53,
            14.56,
            14.6,
            14.63,
            14.67,
            14.7,
            14.77,
            14.84,
            14.91,
            14.99,
            15.06,
            15.13,
            15.2,
            15.28,
            15.43,
            15.58,
            15.73,
            15.89,
            16.2,
            16.53,
            16.87,
            17.22,
            17.58,
            17.95,
            18.33,
            18.72,
            19.13,
            19.55,
            19.99,
            20.04,
            20.1,
            20.15,
            20.21,
            20.27,
            20.32,
            20.38,
            20.44,
            20.49,
            20.55,
            20.61,
            20.67,
            20.73,
            20.78,
            20.84,
            20.9,
            21.02,
            21.14,
            21.26,
            21.38,
            21.44,
            21.5,
            21.57,
            21.63,
            21.69,
            21.75,
            21.82,
            21.88,
            22.01,
            22.14,
            22.26,
            22.4,
            22.66,
            22.93,
            23.48,
            24.06,
            24.65,
            25.27,
            25.91,
            26.57,
            26.74,
            26.91,
            27.09,
            27.26,
            27.35,
            27.44,
            27.53,
            27.62,
            27.71,
            27.8,
            27.89,
            27.98,
            28.35,
            28.73,
            29.5,
            30.32,
            31.16,
            32.04,
            32.95,
            33.91,
            34.91,
            35.04,
            35.16,
            35.29,
            35.42,
            35.55,
            35.69,
            35.82,
            35.95,
            36.08,
            36.22,
            36.35,
            36.49,
            36.63,
            36.76,
            36.9,
            37.04,
            37.18,
            37.32,
            37.46,
            37.61,
            37.75,
            37.89,
            38.04,
            38.18,
            38.48,
            38.77,
            39.07,
            39.38,
            40.0,
            40.63,
            41.28,
            41.94,
            42.62,
            43.32,
            44.03,
            44.76,
            45.51,
            46.28,
            47.07,
            47.88,
            48.71,
            49.56,
            50.44,
            51.34,
            52.26,
            53.21,
            54.18,
            55.18,
            56.21,
            57.27,
            58.35,
            59.47,
            60.62,
            61.81,
            63.03,
            64.29,
            64.44,
            64.61,
            64.77,
            64.93,
            65.09,
            65.25,
            65.42,
            65.58,
            65.74,
            65.91,
            66.07,
            66.24,
            66.41,
            66.58,
            66.75,
            66.91,
            67.25,
            67.6,
            67.94,
            68.29,
            68.64,
            68.99,
            69.35,
            69.71,
            71.17,
            72.68,
            74.24,
            75.84,
            77.5,
            79.22,
            79.44,
            79.66,
            79.88,
            80.1,
            80.32,
            80.54,
            80.77,
            80.99,
            81.45,
            81.9,
            82.36,
            82.83,
            83.3,
            83.77,
            84.24,
            84.72,
            85.7,
            86.69,
            87.19,
            87.69,
            88.21,
            88.72,
            88.98,
            89.24,
            89.5,
            89.76,
            90.03,
            90.29,
            90.56,
            90.82,
            91.9,
            93.0,
            94.12,
            95.26,
            96.42,
            97.61,
            98.81,
            100.0,
            100.2,
            100.3,
            100.5,
            100.7,
            100.8,
            101.0,
            101.1,
            101.3,
            101.4,
            101.6,
            101.8,
            101.9,
            102.1,
            102.2,
            102.4,
            102.6,
            103.2,
            103.8,
            104.5,
            105.2,
            105.8,
            106.5,
            107.2,
            107.9,
            109.3,
            110.7,
            112.2,
            113.7,
            114.0,
            114.4,
            114.8,
            115.2,
            115.6,
            115.9,
            116.3,
            116.7,
            117.1,
            117.5,
            117.9,
            118.3,
            118.7,
            119.1,
            119.5,
            119.9,
            120.3,
            120.7,
            121.1,
            121.6,
            122.0,
            122.4,
            122.8,
            123.2,
            126.7,
            130.3,
            134.0,
            138.0,
            140.0,
            142.1,
            144.2,
            146.3,
            147.4,
            148.6,
            149.7,
            150.8,
            155.5,
            157.9,
            160.4,
            163.0,
            163.6,
            164.3,
            164.9,
            165.6,
            166.9,
            168.2,
            171.0,
            173.8,
            176.6,
            179.6,
            182.6,
            185.7,
            186.1,
            186.5,
            186.9,
            187.3,
            187.6,
            188.1,
            188.4,
            188.9,
            189.3,
            189.6,
            190.1,
            190.5,
            190.9,
            191.3,
            191.7,
            192.1,
            193.8,
            195.4,
            197.1,
            198.9,
            202.4,
            206.0,
            206.9,
            207.8,
            208.8,
            209.7,
            210.6,
            211.6,
            212.5,
            213.5,
            217.4,
            221.4,
            225.6,
            227.7,
            229.8,
            234.2,
            236.4,
            238.7,
            239.8,
            241.0,
            242.1,
            243.3,
            248.1,
            253.0,
            258.0,
            263.2,
            268.6,
            271.3,
            274.1,
            275.5,
            277.0,
            278.4,
            279.8,
            285.7,
            288.7,
            291.8,
            294.9,
            298.0,
            304.5,
            311.2,
            314.6,
            318.1,
            325.2,
            332.6,
            340.2,
            342.2,
            344.2,
            346.1,
            348.1,
            349.1,
            350.2,
            351.2,
            352.2,
            353.2,
            354.3,
            355.3,
            356.3,
            360.5,
            364.8,
            373.6,
            382.6,
            385.0,
            387.3,
            389.7,
            392.1,
            396.9,
            401.9,
            406.9,
            412.0,
            414.6,
            417.2,
            419.9,
            422.6,
            433.5,
            444.9,
            456.7,
            469.1,
            475.4,
            481.9,
            495.2,
            509.2,
            516.3,
            523.7,
            531.2,
            538.8,
            542.7,
            546.6,
            550.6,
            554.6,
            571.2,
            575.4,
            579.7,
            584.0,
            588.4,
            589.5,
            590.6,
            591.7,
            592.8,
            594.0,
            595.1,
            596.2,
            597.3,
            598.5,
            599.6,
            600.7,
            601.9,
            603.0,
            604.2,
            605.3,
            606.5,
            615.8,
            625.4,
            635.2,
            645.2,
            655.4,
            658.0,
            660.7,
            663.3,
            666.0,
            671.3,
            676.7,
            687.7,
            699.0,
            710.6,
            722.5,
            734.6,
            747.1,
            759.9,
            773.0,
            786.5,
            800.3,
            814.5,
            829.0,
            844.0,
            851.6,
            859.4,
            867.2,
            875.2,
            891.4,
            899.7,
            908.1,
            925.3,
            942.9,
            961.1,
            970.4,
            979.8,
            989.3,
            999.0,
            1009.0,
            1019.0,
            1039.0,
            1060.0,
            1082.0,
            1093.0,
            1104.0,
            1116.0,
            1127.0,
            1139.0,
            1151.0,
            1176.0,
            1201.0,
            1214.0,
            1227.0,
            1234.0,
            1241.0,
            1247.0,
            1254.0,
            1282.0,
            1311.0,
            1341.0,
            1372.0,
            1388.0,
            1404.0,
            1437.0,
            1471.0,
            1507.0,
            1544.0,
            1563.0,
            1582.0,
            1601.0,
            1621.0,
            1663.0,
            1705.0,
            1727.0,
            1750.0,
            1773.0,
            1796.0,
            1820.0,
            1844.0,
            1894.0,
            1946.0,
            1959.0,
            1973.0,
            1986.0,
            2000.0,
            2057.0,
            2116.0,
            2177.0,
            2241.0,
            2308.0,
            2343.0,
            2378.0,
            2415.0,
            2452.0,
            2490.0,
            2529.0,
            2548.0,
            2568.0,
            2609.0,
            2651.0,
            2694.0,
            2737.0,
            2782.0,
            2828.0,
            2875.0,
            2924.0,
            2973.0,
            3024.0,
            3076.0,
            3129.0,
            3184.0,
            3240.0,
            3298.0,
            3358.0,
            3419.0,
            3481.0,
            3546.0,
            3612.0,
            3680.0,
            3750.0,
            3822.0,
            3896.0,
            3972.0,
            4051.0,
            4132.0,
            4215.0,
            4301.0,
            4390.0,
            4481.0,
            4575.0,
            4673.0,
            4773.0,
            4877.0,
            4984.0,
            5094.0,
            5209.0,
            5327.0,
            5449.0,
            5576.0,
            5707.0,
            5842.0,
            5983.0,
            6129.0,
            6280.0,
            6437.0,
            6599.0,
            6768.0,
            6944.0,
            7126.0,
            7316.0,
            7514.0,
            7719.0,
            7933.0,
            8156.0,
            8389.0,
            8509.0,
            8632.0,
            8757.0,
            8885.0,
            9016.0,
            9150.0,
            9287.0,
            9427.0,
            9570.0,
            9716.0,
            9866.0,
            10020.0,
            10180.0,
            10340.0,
            10500.0,
            10670.0,
            10840.0,
            11020.0,
            11200.0,
            11390.0,
            11580.0,
            11770.0,
            11970.0,
            12180.0,
            12390.0,
            12600.0,
            12820.0,
            13050.0,
            13290.0,
            13530.0,
            13770.0,
            14030.0,
            14290.0,
            14550.0,
            14830.0,
            15110.0,
            15400.0,
            15700.0,
            16010.0,
            16330.0,
            16660.0,
            16990.0,
            17340.0,
            17700.0,
            18070.0,
            18450.0,
            18850.0,
            19250.0,
            19670.0,
            20110.0,
            20550.0,
            21020.0,
            21500.0,
            21990.0,
            22510.0,
            23040.0,
            23590.0,
            24160.0,
            24750.0,
            25360.0,
            26000.0,
            26660.0,
            27340.0,
            28060.0,
            28800.0,
            29570.0,
            30370.0,
            31210.0,
            32080.0,
            32980.0,
            33930.0,
            34920.0,
            35950.0,
            37030.0,
            38150.0,
            39330.0,
            40570.0,
            41860.0,
            43220.0,
            44640.0,
            46130.0,
            47710.0,
            49360.0,
            51100.0,
            52930.0,
            54870.0,
            56910.0,
            59070.0,
            61350.0,
            63770.0,
            66340.0,
            69060.0,
            71960.0,
            75040.0,
            78320.0,
            81820.0,
            85560.0,
            89570.0,
            93860.0,
            98470.0,
            103400.0,
            108800.0,
            114500.0,
            120800.0,
            124100.0,
            127500.0,
            134900.0,
            142900.0,
            151600.0,
            161200.0,
            163700.0,
            166300.0,
            169000.0,
            171700.0,
            177300.0,
            183200.0,
            186300.0,
            189400.0,
            192700.0,
            196000.0,
            202900.0,
            210100.0,
            213900.0,
            217800.0,
            221800.0,
            225900.0,
            230100.0,
            234400.0,
            238800.0,
            243400.0,
            263100.0,
            268400.0,
            273900.0,
            279500.0,
            285300.0,
            291300.0,
            297500.0,
            303800.0,
            310400.0,
            324200.0,
            339000.0,
            354800.0,
            371700.0,
            389900.0
          ],
          [
            2.524,
            2.564,
            2.605,
            2.648,
            2.691,
            2.735,
            2.78,
            2.827,
            2.874,
            2.923,
            2.973,
            3.025,
            3.077,
            3.132,
            3.187,
            3.244,
            3.303,
            3.363,
            3.425,
            3.488,
            3.554,
            3.621,
            3.69,
            3.761,
            3.835,
            3.91,
            3.988,
            4.068,
            4.15,
            4.235,
            4.323,
            4.413,
            4.506,
            4.602,
            4.702,
            4.804,
            4.91,
            5.019,
            5.133,
            5.25,
            5.371,
            5.496,
            5.626,
            5.76,
            5.9,
            6.044,
            6.081,
            6.118,
            6.156,
            6.194,
            6.213,
            6.232,
            6.251,
            6.271,
            6.29,
            6.31,
            6.33,
            6.349,
            6.369,
            6.389,
            6.409,
            6.429,
            6.449,
            6.47,
            6.49,
            6.51,
            6.678,
            6.852,
            6.874,
            6.897,
            6.919,
            6.942,
            6.964,
            6.987,
            7.01,
            7.033,
            7.056,
            7.08,
            7.103,
            7.126,
            7.15,
            7.174,
            7.198,
            7.221,
            7.27,
            7.319,
            7.368,
            7.417,
            7.518,
            7.622,
            7.834,
            8.056,
            8.287,
            8.528,
            8.78,
            8.91,
            9.043,
            9.111,
            9.179,
            9.248,
            9.318,
            9.389,
            9.461,
            9.533,
            9.606,
            9.68,
            9.755,
            9.831,
            9.908,
            9.947,
            9.986,
            10.02,
            10.06,
            10.14,
            10.22,
            10.39,
            10.56,
            10.73,
            10.9,
            11.08,
            11.27,
            11.46,
            11.65,
            11.85,
            12.06,
            12.27,
            12.48,
            12.7,
            12.93,
            13.16,
            13.4,
            13.65,
            13.77,
            13.9,
            13.97,
            14.03,
            14.1,
            14.16,
            14.29,
            14.43,
            14.46,
            14.5,
            14.53,
            14.56,
            14.6,
            14.63,
            14.67,
            14.7,
            14.77,
            14.84,
            14.91,
            14.99,
            15.06,
            15.13,
            15.2,
            15.28,
            15.43,
            15.58,
            15.73,
            15.89,
            16.2,
            16.53,
            16.87,
            17.22,
            17.58,
            17.95,
            18.33,
            18.72,
            19.13,
            19.55,
            19.99,
            20.04,
            20.1,
            20.15,
            20.21,
            20.27,
            20.32,
            20.38,
            20.44,
            20.49,
            20.55,
            20.61,
            20.67,
            20.73,
            20.78,
            20.84,
            20.9,
            21.02,
            21.14,
            21.26,
            21.38,
            21.44,
            21.5,
            21.57,
            21.63,
            21.69,
            21.75,
            21.82,
            21.88,
            22.01,
            22.14,
            22.26,
            22.4,
            22.66,
            22.93,
            23.48,
            24.06,
            24.65,
            25.27,
            25.91,
            26.57,
            26.74,
            26.91,
            27.09,
            27.26,
            27.35,
            27.44,
            27.53,
            27.62,
            27.71,
            27.8,
            27.89,
            27.98,
            28.35,
            28.73,
            29.5,
            30.32,
            31.16,
            32.04,
            32.95,
            33.91,
            34.91,
            35.04,
            35.16,
            35.29,
            35.42,
            35.55,
            35.69,
            35.82,
            35.95,
            36.08,
            36.22,
            36.35,
            36.49,
            36.63,
            36.76,
            36.9,
            37.04,
            37.18,
            37.32,
            37.46,
            37.61,
            37.75,
            37.89,
            38.04,
            38.18,
            38.48,
            38.77,
            39.07,
            39.38,
            40.0,
            40.63,
            41.28,
            41.94,
            42.62,
            43.32,
            44.03,
            44.76,
            45.51,
            46.28,
            47.07,
            47.88,
            48.71,
            49.56,
            50.44,
            51.34,
            52.26,
            53.21,
            54.18,
            55.18,
            56.21,
            57.27,
            58.35,
            59.47,
            60.62,
            61.81,
            63.03,
            64.29,
            64.44,
            64.61,
            64.77,
            64.93,
            65.09,
            65.25,
            65.42,
            65.58,
            65.74,
            65.91,
            66.07,
            66.24,
            66.41,
            66.58,
            66.75,
            66.91,
            67.25,
            67.6,
            67.94,
            68.29,
            68.64,
            68.99,
            69.35,
            69.71,
            71.17,
            72.68,
            74.24,
            75.84,
            77.5,
            79.22,
            79.44,
            79.66,
            79.88,
            80.1,
            80.32,
            80.54,
            80.77,
            80.99,
            81.45,
            81.9,
            82.36,
            82.83,
            83.3,
            83.77,
            84.24,
            84.72,
            85.7,
            86.69,
            87.19,
            87.69,
            88.21,
            88.72,
            88.98,
            89.24,
            89.5,
            89.76,
            90.03,
            90.29,
            90.56,
            90.82,
            91.9,
            93.0,
            94.12,
            95.26,
            96.42,
            97.61,
            98.81,
            100.0,
            100.2,
            100.3,
            100.5,
            100.7,
            100.8,
            101.0,
            101.1,
            101.3,
            101.4,
            101.6,
            101.8,
            101.9,
            102.1,
            102.2,
            102.4,
            102.6,
            103.2,
            103.8,
            104.5,
            105.2,
            105.8,
            106.5,
            107.2,
            107.9,
            109.3,
            110.7,
            112.2,
            113.7,
            114.0,
            114.4,
            114.8,
            115.2,
            115.6,
            115.9,
            116.3,
            116.7,
            117.1,
            117.5,
            117.9,
            118.3,
            118.7,
            119.1,
            119.5,
            119.9,
            120.3,
            120.7,
            121.1,
            121.6,
            122.0,
            122.4,
            122.8,
            123.2,
            126.7,
            130.3,
            134.0,
            138.0,
            140.0,
            142.1,
            144.2,
            146.3,
            147.4,
            148.6,
            149.7,
            150.8,
            155.5,
            157.9,
            160.4,
            163.0,
            163.6,
            164.3,
            164.9,
            165.6,
            166.9,
            168.2,
            171.0,
            173.8,
            176.6,
            179.6,
            182.6,
            185.7,
            186.1,
            186.5,
            186.9,
            187.3,
            187.6,
            188.1,
            188.4,
            188.9,
            189.3,
            189.6,
            190.1,
            190.5,
            190.9,
            191.3,
            191.7,
            192.1,
            193.8,
            195.4,
            197.1,
            198.9,
            202.4,
            206.0,
            206.9,
            207.8,
            208.8,
            209.7,
            210.6,
            211.6,
            212.5,
            213.5,
            217.4,
            221.4,
            225.6,
            227.7,
            229.8,
            234.2,
            236.4,
            238.7,
            239.8,
            241.0,
            242.1,
            243.3,
            248.1,
            253.0,
            258.0,
            263.2,
            268.6,
            271.3,
            274.1,
            275.5,
            277.0,
            278.4,
            279.8,
            285.7,
            288.7,
            291.8,
            294.9,
            298.0,
            304.5,
            311.2,
            314.6,
            318.1,
            325.2,
            332.6,
            340.2,
            342.2,
            344.2,
            346.1,
            348.1,
            349.1,
            350.2,
            351.2,
            352.2,
            353.2,
            354.3,
            355.3,
            356.3,
            360.5,
            364.8,
            373.6,
            382.6,
            385.0,
            387.3,
            389.7,
            392.1,
            396.9,
            401.9,
            406.9,
            412.0,
            414.6,
            417.2,
            419.9,
            422.6,
            433.5,
            444.9,
            456.7,
            469.1,
            475.4,
            481.9,
            495.2,
            509.2,
            516.3,
            523.7,
            531.2,
            538.8,
            542.7,
            546.6,
            550.6,
            554.6,
            571.2,
            575.4,
            579.7,
            584.0,
            588.4,
            589.5,
            590.6,
            591.7,
            592.8,
            594.0,
            595.1,
            596.2,
            597.3,
            598.5,
            599.6,
            600.7,
            601.9,
            603.0,
            604.2,
            605.3,
            606.5,
            615.8,
            625.4,
            635.2,
            645.2,
            655.4,
            658.0,
            660.7,
            663.3,
            666.0,
            671.3,
            676.7,
            687.7,
            699.0,
            710.6,
            722.5,
            734.6,
            747.1,
            759.9,
            773.0,
            786.5,
            800.3,
            814.5,
            829.0,
            844.0,
            851.6,
            859.4,
            867.2,
            875.2,
            891.4,
            899.7,
            908.1,
            925.3,
            942.9,
            961.1,
            970.4,
            979.8,
            989.3,
            999.0,
            1009.0,
            1019.0,
            1039.0,
            1060.0,
            1082.0,
            1093.0,
            1104.0,
            1116.0,
            1127.0,
            1139.0,
            1151.0,
            1176.0,
            1201.0,
            1214.0,
            1227.0,
            1234.0,
            1241.0,
            1247.0,
            1254.0,
            1282.0,
            1311.0,
            1341.0,
            1372.0,
            1388.0,
            1404.0,
            1437.0,
            1471.0,
            1507.0,
            1544.0,
            1563.0,
            1582.0,
            1601.0,
            1621.0,
            1663.0,
            1705.0,
            1727.0,
            1750.0,
            1773.0,
            1796.0,
            1820.0,
            1844.0,
            1894.0,
            1946.0,
            1959.0,
            1973.0,
            1986.0,
            2000.0,
            2057.0,
            2116.0,
            2177.0,
            2241.0,
            2308.0,
            2343.0,
            2378.0,
            2415.0,
            2452.0,
            2490.0,
            2529.0,
            2548.0,
            2568.0,
            2609.0,
            2651.0,
            2694.0,
            2737.0,
            2782.0,
            2828.0,
            2875.0,
            2924.0,
            2973.0,
            3024.0,
            3076.0,
            3129.0,
            3184.0,
            3240.0,
            3298.0,
            3358.0,
            3419.0,
            3481.0,
            3546.0,
            3612.0,
            3680.0,
            3750.0,
            3822.0,
            3896.0,
            3972.0,
            4051.0,
            4132.0,
            4215.0,
            4301.0,
            4390.0,
            4481.0,
            4575.0,
            4673.0,
            4773.0,
            4877.0,
            4984.0,
            5094.0,
            5209.0,
            5327.0,
            5449.0,
            5576.0,
            5707.0,
            5842.0,
            5983.0,
            6129.0,
            6280.0,
            6437.0,
            6599.0,
            6768.0,
            6944.0,
            7126.0,
            7316.0,
            7514.0,
            7719.0,
            7933.0,
            8156.0,
            8389.0,
            8509.0,
            8632.0,
            8757.0,
            8885.0,
            9016.0,
            9150.0,
            9287.0,
            9427.0,
            9570.0,
            9716.0,
            9866.0,
            10020.0,
            10180.0,
            10340.0,
            10500.0,
            10670.0,
            10840.0,
            11020.0,
            11200.0,
            11390.0,
            11580.0,
            11770.0,
            11970.0,
            12180.0,
            12390.0,
            12600.0,
            12820.0,
            13050.0,
            13290.0,
            13530.0,
            13770.0,
            14030.0,
            14290.0,
            14550.0,
            14830.0,
            15110.0,
            15400.0,
            15700.0,
            16010.0,
            16330.0,
            16660.0,
            16990.0,
            17340.0,
            17700.0,
            18070.0,
            18450.0,
            18850.0,
            19250.0,
            19670.0,
            20110.0,
            20550.0,
            21020.0,
            21500.0,
            21990.0,
            22510.0,
            23040.0,
            23590.0,
            24160.0,
            24750.0,
            25360.0,
            26000.0,
            26660.0,
            27340.0,
            28060.0,
            28800.0,
            29570.0,
            30370.0,
            31210.0,
            32080.0,
            32980.0,
            33930.0,
            34920.0,
            35950.0,
            37030.0,
            38150.0,
            39330.0,
            40570.0,
            41860.0,
            43220.0,
            44640.0,
            46130.0,
            47710.0,
            49360.0,
            51100.0,
            52930.0,
            54870.0,
            56910.0,
            59070.0,
            61350.0,
            63770.0,
            66340.0,
            69060.0,
            71960.0,
            75040.0,
            78320.0,
            81820.0,
            85560.0,
            89570.0,
            93860.0,
            98470.0,
            103400.0,
            108800.0,
            114500.0,
            120800.0,
            124100.0,
            127500.0,
            134900.0,
            142900.0,
            151600.0,
            161200.0,
            163700.0,
            166300.0,
            169000.0,
            171700.0,
            177300.0,
            183200.0,
            186300.0,
            189400.0,
            192700.0,
            196000.0,
            202900.0,
            210100.0,
            213900.0,
            217800.0,
            221800.0,
            225900.0,
            230100.0,
            234400.0,
            238800.0,
            243400.0,
            263100.0,
            268400.0,
            273900.0,
            279500.0,
            285300.0,
            291300.0,
            297500.0,
            303800.0,
            310400.0,
            324200.0,
            339000.0,
            354800.0,
            371700.0,
            389900.0,
            409400.0
          ],
          [
            0.2456,
            0.2415,
            0.241,
            0.2475,
            0.2445,
            0.2471,
            0.2447,
            0.2419,
            0.2405,
            0.2459,
            0.2433,
            0.2476,
            0.2437,
            0.2446,
            0.244,
            0.2416,
            0.2474,
            0.2477,
            0.242,
            0.2442,
            0.2455,
            0.2434,
            0.2444,
            0.2434,
            0.2433,
            0.2427,
            0.2431,
            0.2472,
            0.24,
            0.2452,
            0.2464,
            0.2434,
            0.2451,
            0.2442,
            0.2414,
            0.2437,
            0.2402,
            0.2443,
            0.2357,
            0.248,
            0.2461,
            0.2481,
            0.2434,
            0.2438,
            0.2423,
            0.2437,
            0.2417,
            0.2526,
            0.2374,
            0.2449,
            0.2392,
            0.2324,
            0.254,
            0.221,
            0.2802,
            0.2078,
            0.224,
            0.2558,
            0.07383,
            0.5879,
            0.2551,
            0.2655,
            0.2796,
            0.283,
            0.2674,
            0.2707,
            0.2686,
            0.2689,
            0.2681,
            0.2705,
            0.2879,
            0.2829,
            0.2799,
            0.3237,
            0.301,
            0.4258,
            0.208,
            -0.01033,
            0.2271,
            0.212,
            0.2159,
            0.1996,
            0.2535,
            0.2243,
            0.2362,
            0.2297,
            0.2512,
            0.2355,
            0.2372,
            0.2389,
            0.2429,
            0.241,
            0.2461,
            0.2419,
            0.2431,
            0.2397,
            0.242,
            0.2523,
            0.2539,
            0.2446,
            0.2483,
            0.249,
            0.2435,
            0.2506,
            0.2481,
            0.2349,
            0.2492,
            0.2447,
            0.252,
            0.2534,
            0.246,
            0.2383,
            0.256,
            0.2513,
            0.2337,
            0.2421,
            0.2473,
            0.2468,
            0.2449,
            0.2422,
            0.2454,
            0.2459,
            0.2408,
            0.2421,
            0.2457,
            0.2506,
            0.2448,
            0.2438,
            0.2427,
            0.2445,
            0.2447,
            0.2501,
            0.248,
            0.251,
            0.2519,
            0.244,
            0.2294,
            0.2392,
            0.2235,
            0.301,
            0.2571,
            0.2765,
            0.2528,
            0.3032,
            0.2647,
            0.2817,
            0.2423,
            0.2862,
            0.2395,
            0.2476,
            0.2454,
            0.2539,
            0.252,
            0.2397,
            0.2444,
            0.2488,
            0.2474,
            0.2481,
            0.2473,
            0.2433,
            0.2486,
            0.242,
            0.2456,
            0.2405,
            0.2424,
            0.2398,
            0.2465,
            0.24,
            0.2405,
            0.2416,
            0.2467,
            0.2352,
            0.2315,
            0.2643,
            0.2389,
            0.2403,
            0.2464,
            0.2074,
            0.1474,
            0.1656,
            0.2642,
            0.2606,
            0.2601,
            0.2531,
            0.284,
            0.2768,
            0.2775,
            0.2681,
            0.2785,
            0.2727,
            0.2923,
            0.2735,
            0.3454,
            0.2658,
            0.2686,
            -1.713,
            0.01649,
            0.1069,
            0.3291,
            0.2236,
            0.2156,
            0.2434,
            0.2312,
            0.2196,
            0.243,
            0.2435,
            0.2456,
            0.2375,
            0.2447,
            0.2387,
            0.2398,
            0.2352,
            0.2325,
            0.2429,
            0.2531,
            0.239,
            0.2367,
            0.2315,
            0.2459,
            0.2346,
            0.2322,
            0.2512,
            0.2421,
            0.2437,
            0.2446,
            0.242,
            0.2379,
            0.2427,
            0.2415,
            0.2459,
            0.2422,
            0.2421,
            0.2417,
            0.2526,
            0.2459,
            0.2418,
            0.2406,
            0.2425,
            0.2579,
            0.2524,
            0.7149,
            0.2566,
            0.2949,
            0.2657,
            0.2588,
            0.2682,
            0.2734,
            0.2729,
            0.2731,
            0.2718,
            0.2724,
            0.2701,
            0.272,
            0.2958,
            0.2977,
            0.3142,
            0.5433,
            0.05673,
            0.2422,
            0.2441,
            0.2362,
            0.2211,
            0.24,
            0.2503,
            0.2425,
            0.2376,
            0.2419,
            0.2384,
            0.2319,
            0.2422,
            0.2458,
            0.2507,
            0.2471,
            0.2489,
            0.2374,
            0.2338,
            0.243,
            0.2435,
            0.2395,
            0.2391,
            0.2489,
            0.241,
            0.2452,
            0.2399,
            0.2446,
            0.2319,
            0.238,
            0.2415,
            0.2353,
            0.2551,
            0.2453,
            0.2287,
            0.235,
            0.252,
            0.234,
            0.2668,
            0.2488,
            0.3194,
            0.2761,
            0.268,
            0.2705,
            0.2835,
            0.3096,
            0.3117,
            0.3427,
            0.1865,
            0.2217,
            0.225,
            0.2103,
            0.2622,
            0.2399,
            0.2428,
            0.242,
            0.2378,
            0.2366,
            0.2431,
            0.2358,
            0.2405,
            0.2276,
            0.2567,
            0.2699,
            0.276,
            0.2464,
            0.2682,
            0.1882,
            0.2602,
            0.2345,
            0.2241,
            0.2399,
            0.2276,
            0.236,
            0.2343,
            0.262,
            0.2178,
            0.2391,
            0.2277,
            0.2356,
            0.244,
            0.2368,
            0.2481,
            0.3092,
            0.231,
            0.4673,
            0.03474,
            0.1547,
            0.2321,
            0.1881,
            0.2259,
            0.2388,
            0.2472,
            0.2345,
            0.2331,
            0.2411,
            0.2347,
            0.2477,
            0.2401,
            0.2291,
            0.2616,
            0.2503,
            0.2548,
            0.2364,
            0.2548,
            0.2654,
            0.2768,
            0.2747,
            0.2292,
            0.2172,
            0.218,
            0.2822,
            0.5136,
            0.2305,
            0.3095,
            0.27,
            0.2806,
            0.3141,
            0.01866,
            0.1774,
            0.1599,
            0.2357,
            0.231,
            0.2221,
            0.2499,
            0.2264,
            0.2369,
            0.2352,
            0.2494,
            0.2454,
            0.2348,
            0.2381,
            0.2482,
            0.2308,
            0.3207,
            0.3034,
            0.2158,
            1.288,
            0.1359,
            0.2465,
            0.1896,
            0.2696,
            0.4936,
            0.2029,
            0.1821,
            0.1335,
            0.1998,
            0.2055,
            0.2474,
            0.2394,
            0.2356,
            0.2336,
            0.2384,
            0.2435,
            0.2497,
            0.249,
            0.2352,
            0.2474,
            0.2278,
            0.225,
            0.2271,
            0.2546,
            0.235,
            0.2392,
            0.2339,
            0.2412,
            0.2374,
            0.2534,
            0.2373,
            0.2125,
            0.199,
            0.2214,
            0.237,
            0.2461,
            0.2357,
            0.2477,
            0.2492,
            0.2349,
            0.2306,
            0.246,
            0.2666,
            0.2661,
            0.2621,
            0.2729,
            0.2592,
            0.2966,
            0.2572,
            0.2738,
            1.314,
            0.27,
            0.2652,
            0.2362,
            0.3243,
            0.3067,
            0.3619,
            0.3664,
            0.2076,
            0.2409,
            0.2198,
            0.2242,
            0.2375,
            0.2454,
            0.2433,
            0.3071,
            0.2651,
            -0.1583,
            0.2254,
            0.2212,
            0.2252,
            0.2352,
            0.2377,
            0.2236,
            0.231,
            0.2279,
            0.2273,
            0.2494,
            0.2424,
            0.2167,
            0.2444,
            0.1896,
            0.2642,
            0.2382,
            0.2418,
            0.2403,
            0.236,
            0.2295,
            0.2339,
            0.2457,
            0.212,
            0.184,
            0.2128,
            0.243,
            0.2291,
            0.2473,
            0.2353,
            0.2155,
            0.2593,
            0.2361,
            0.2264,
            0.2301,
            0.2366,
            0.2384,
            0.24,
            0.239,
            0.2427,
            0.2279,
            0.2601,
            0.2577,
            0.2221,
            0.1812,
            0.1496,
            0.2593,
            0.23,
            0.2552,
            0.1826,
            0.2651,
            0.2484,
            0.2217,
            0.2459,
            0.2357,
            0.2455,
            0.2242,
            0.2497,
            0.2758,
            0.06254,
            0.2214,
            0.2391,
            0.2351,
            0.1904,
            0.2174,
            0.2092,
            0.2498,
            0.2491,
            0.2417,
            0.2306,
            0.2387,
            0.2421,
            0.2296,
            0.2387,
            0.2355,
            0.2473,
            0.2255,
            0.2186,
            0.2453,
            0.1962,
            0.2309,
            0.2544,
            0.2438,
            0.2352,
            0.2267,
            0.2438,
            0.2573,
            0.2116,
            0.2614,
            0.2252,
            0.2739,
            0.2923,
            0.2794,
            0.1776,
            0.1886,
            0.2036,
            0.1977,
            0.2097,
            0.2193,
            0.2095,
            0.2632,
            0.2428,
            0.2641,
            0.417,
            0.2396,
            0.2328,
            0.2409,
            0.2426,
            0.2433,
            0.2155,
            0.2346,
            0.2135,
            0.2944,
            0.1723,
            0.208,
            0.2326,
            0.2485,
            0.2371,
            0.2353,
            0.2437,
            0.2196,
            0.2323,
            0.2238,
            0.2389,
            0.2413,
            0.2382,
            0.2371,
            0.2384,
            0.2319,
            0.2406,
            0.2014,
            0.2223,
            0.2394,
            0.2513,
            0.2455,
            0.2037,
            0.2331,
            0.2411,
            0.2547,
            0.2602,
            0.2784,
            0.2434,
            0.2265,
            0.2422,
            0.2309,
            0.2333,
            0.2512,
            0.1945,
            0.2189,
            0.221,
            0.2815,
            0.2076,
            0.2373,
            0.2259,
            0.2386,
            0.2403,
            0.2565,
            0.2748,
            0.1815,
            0.2301,
            0.1965,
            0.2436,
            0.2343,
            0.2366,
            0.2278,
            0.2355,
            0.2182,
            0.2192,
            0.2363,
            0.2058,
            0.2306,
            0.2243,
            0.2484,
            0.2503,
            0.2419,
            0.2419,
            0.2445,
            0.2287,
            0.2306,
            0.278,
            0.2403,
            0.1746,
            0.2426,
            0.2258,
            0.2309,
            0.2527,
            0.298,
            0.2905,
            0.1595,
            0.2161,
            0.2143,
            0.2335,
            0.2333,
            0.2424,
            0.2514,
            0.2143,
            0.2567,
            0.2354,
            0.2299,
            0.2545,
            0.2935,
            0.2726,
            0.1966,
            0.2163,
            0.274,
            0.2042,
            0.2464,
            0.2047,
            0.2459,
            0.2152,
            0.2323,
            0.221,
            0.202,
            0.2364,
            0.2607,
            0.2016,
            0.2353,
            0.2145,
            0.2094,
            0.2474,
            0.2163,
            0.2397,
            0.2279,
            0.2177,
            0.2561,
            0.2347,
            0.1773,
            0.2104,
            0.2439,
            0.2524,
            0.2545,
            0.2086,
            0.2461,
            0.2629,
            0.2042,
            0.226,
            0.2373,
            0.2202,
            0.23,
            0.2653,
            0.2582,
            0.2135,
            0.2507,
            0.2386,
            0.2242,
            0.205,
            0.2253,
            0.2469,
            0.2215,
            0.2416,
            0.2238,
            0.2446,
            0.2236,
            0.2265,
            0.2342,
            0.2311,
            0.2434,
            0.2679,
            0.2272,
            0.2119,
            0.2377,
            0.2316,
            0.2128,
            0.2456,
            0.2159,
            0.2377,
            0.2166,
            0.2031,
            0.2192,
            0.2208,
            0.2347,
            0.2239,
            0.2327,
            0.2078,
            0.2352,
            0.241,
            0.2335,
            0.2327,
            0.2235,
            0.2017,
            0.2249,
            0.2363,
            0.2237,
            0.2383,
            0.2512,
            0.2519,
            0.2513,
            0.2553,
            0.2136,
            0.221,
            0.2441,
            0.203,
            0.2173,
            0.198,
            0.2788,
            0.2273,
            0.2442,
            0.2245,
            0.2411,
            0.2347,
            0.2367,
            0.2452,
            0.2305,
            0.2198,
            0.2279,
            0.2475,
            0.2375,
            0.2624,
            0.2387,
            0.2362,
            0.2211,
            0.2083,
            0.2231,
            0.2144,
            0.2498,
            0.2428,
            0.2261,
            0.24,
            0.2158,
            0.2043,
            0.2261,
            0.2368,
            0.2289,
            0.2656,
            0.2443,
            0.2453,
            0.2303,
            0.2419,
            0.2584,
            0.2266,
            -0.02241,
            0.4085,
            -0.007476,
            0.1975,
            0.2386,
            0.1899,
            0.2465,
            0.2344,
            0.2338,
            0.2149,
            0.2358,
            0.2226,
            0.2424,
            0.2372,
            0.2414,
            0.24,
            0.2466,
            0.2611,
            0.2508,
            0.2392,
            0.254,
            0.2657,
            0.2657,
            0.2882,
            0.2762,
            0.348,
            0.2973,
            0.2807,
            0.2937,
            0.3193,
            0.3266,
            0.3433,
            0.3595,
            0.404,
            0.3674,
            0.4487,
            0.5245,
            0.6032,
            0.6994,
            0.7343,
            0.7028,
            0.7583,
            0.8927,
            0.9546,
            0.8675,
            1.029,
            1.053,
            1.242,
            1.253,
            1.377,
            1.809,
            2.076,
            2.102,
            2.159,
            2.221,
            2.496,
            2.553,
            2.605,
            2.718,
            2.722,
            2.325,
            2.362,
            2.188,
            2.199,
            1.985,
            1.606,
            1.524,
            1.472,
            1.268,
            0.9897,
            0.841,
            0.7372,
            0.6616,
            0.5214
          ],
          [
            1.007,
            1.005,
            1.008,
            1.008,
            1.01,
            0.999,
            1.006,
            0.999,
            1.001,
            1.002,
            1.006,
            1.002,
            1.003,
            0.994,
            1.006,
            1.001,
            0.997,
            0.999,
            0.995,
            0.992,
            0.995,
            0.994,
            0.997,
            0.995,
            0.987,
            0.981,
            0.982,
            0.982,
            0.978,
            0.988,
            0.982,
            1.003,
            0.999,
            0.982,
            0.983,
            0.983,
            0.993,
            0.983,
            0.98,
            0.987,
            0.994,
            1.008,
            1.015,
            1.03,
            1.063,
            1.148,
            2.439,
            2.589,
            2.711,
            3.03,
            4.689,
            4.885,
            5.433,
            6.048,
            6.903,
            8.593,
            10.308,
            16.253,
            96.71,
            49.753,
            11.969,
            7.438,
            4.754,
            3.896,
            2.869,
            2.516,
            0.777,
            0.776,
            2.475,
            2.751,
            3.157,
            4.181,
            4.809,
            7.486,
            9.547,
            18.531,
            36.099,
            595.25,
            20.533,
            13.245,
            12.6,
            9.297,
            7.754,
            6.74,
            4.25,
            3.611,
            3.394,
            3.016,
            1.988,
            1.872,
            1.219,
            1.139,
            1.099,
            1.065,
            1.081,
            1.525,
            1.454,
            2.024,
            1.989,
            1.974,
            1.944,
            2.001,
            2.078,
            2.306,
            2.392,
            2.149,
            1.899,
            1.767,
            1.755,
            2.53,
            2.544,
            2.618,
            2.713,
            1.966,
            2.115,
            1.49,
            1.368,
            1.369,
            1.361,
            1.36,
            1.355,
            1.357,
            1.376,
            1.378,
            1.336,
            1.342,
            1.381,
            1.335,
            1.305,
            1.299,
            1.31,
            1.341,
            2.015,
            2.255,
            3.676,
            4.259,
            5.223,
            6.657,
            8.105,
            11.9,
            16.735,
            14.35,
            11.29,
            9.988,
            7.9,
            7.01,
            6.213,
            5.491,
            3.216,
            2.84,
            2.51,
            2.389,
            2.316,
            2.298,
            2.326,
            2.424,
            1.758,
            1.767,
            1.766,
            1.794,
            1.276,
            1.252,
            1.246,
            1.236,
            1.234,
            1.226,
            1.243,
            1.241,
            1.215,
            1.295,
            1.323,
            4.167,
            4.579,
            5.049,
            5.371,
            6.527,
            8.614,
            13.947,
            58.657,
            31.062,
            8.699,
            5.389,
            3.723,
            3.141,
            3.209,
            3.001,
            2.908,
            2.104,
            2.17,
            2.391,
            3.145,
            6.443,
            9.073,
            13.816,
            21.206,
            344.22,
            422.68,
            35.428,
            18.709,
            8.543,
            6.278,
            5.421,
            4.941,
            2.963,
            2.707,
            1.745,
            1.622,
            1.528,
            1.453,
            1.424,
            1.381,
            2.743,
            2.732,
            2.808,
            3.151,
            5.371,
            6.068,
            7.357,
            8.157,
            7.885,
            6.476,
            5.223,
            4.604,
            1.982,
            1.857,
            1.281,
            1.239,
            1.218,
            1.192,
            1.156,
            1.118,
            1.114,
            3.276,
            3.382,
            3.557,
            3.817,
            4.033,
            4.899,
            6.577,
            12.575,
            111.3,
            8.689,
            4.6,
            3.497,
            2.83,
            2.886,
            2.852,
            2.984,
            3.153,
            2.924,
            3.473,
            4.094,
            4.785,
            6.4,
            7.577,
            12.604,
            33.047,
            78.014,
            13.178,
            8.643,
            4.202,
            3.404,
            3.013,
            2.84,
            2.642,
            2.483,
            2.371,
            2.288,
            2.211,
            2.148,
            2.104,
            2.059,
            2.111,
            2.075,
            2.052,
            2.033,
            2.01,
            1.963,
            1.943,
            1.932,
            1.956,
            1.899,
            1.846,
            1.8,
            1.795,
            1.734,
            1.695,
            1.739,
            4.532,
            4.638,
            4.518,
            4.769,
            5.127,
            6.305,
            7.615,
            11.825,
            29.342,
            52.353,
            9.389,
            5.976,
            5.461,
            6.102,
            7.175,
            11.691,
            20.225,
            27.456,
            9.109,
            6.833,
            6.484,
            5.532,
            5.317,
            4.962,
            2.336,
            2.179,
            2.058,
            1.985,
            1.932,
            1.884,
            5.448,
            5.366,
            5.487,
            6.505,
            8.145,
            11.457,
            12.806,
            13.046,
            8.072,
            4.958,
            3.956,
            3.933,
            3.964,
            3.958,
            4.599,
            5.934,
            4.177,
            2.951,
            3.834,
            3.764,
            4.07,
            5.124,
            12.783,
            21.496,
            93.396,
            428.28,
            52.779,
            16.731,
            9.087,
            6.85,
            2.562,
            2.45,
            2.231,
            2.172,
            2.175,
            2.152,
            2.139,
            2.324,
            6.558,
            6.304,
            6.231,
            6.54,
            6.287,
            6.577,
            7.14,
            8.28,
            9.299,
            13.184,
            14.738,
            25.779,
            78.913,
            179.0,
            26.408,
            11.891,
            3.838,
            5.215,
            11.511,
            442.23,
            13.211,
            8.555,
            6.985,
            6.426,
            4.238,
            3.399,
            2.999,
            2.729,
            5.041,
            5.267,
            5.011,
            4.983,
            5.051,
            5.797,
            7.509,
            12.931,
            38.012,
            43.292,
            102.44,
            69.069,
            20.0,
            17.034,
            24.208,
            109.74,
            42.653,
            31.546,
            20.639,
            10.78,
            7.699,
            6.875,
            6.42,
            6.475,
            2.258,
            2.038,
            2.046,
            2.014,
            2.994,
            2.744,
            2.748,
            3.41,
            4.576,
            3.752,
            3.769,
            3.719,
            1.852,
            2.518,
            2.568,
            2.432,
            6.052,
            7.529,
            11.12,
            9.665,
            5.112,
            3.544,
            2.415,
            2.337,
            2.256,
            2.114,
            1.977,
            1.814,
            5.24,
            5.369,
            5.47,
            6.113,
            6.66,
            7.838,
            10.261,
            14.888,
            23.838,
            202.53,
            18.361,
            11.123,
            10.914,
            12.505,
            12.821,
            15.594,
            17.123,
            23.682,
            8.568,
            5.994,
            3.523,
            2.804,
            5.225,
            7.366,
            11.957,
            51.08,
            90.084,
            19.304,
            10.052,
            8.658,
            4.23,
            3.332,
            3.421,
            5.35,
            4.515,
            3.141,
            4.914,
            7.739,
            13.568,
            8.629,
            7.321,
            6.814,
            3.132,
            3.005,
            2.939,
            3.043,
            2.858,
            3.81,
            5.436,
            10.919,
            9.236,
            7.155,
            5.828,
            2.939,
            3.861,
            5.156,
            5.758,
            4.236,
            2.866,
            2.968,
            4.408,
            3.867,
            2.642,
            2.652,
            2.526,
            4.652,
            4.509,
            4.963,
            7.386,
            13.193,
            23.771,
            28.051,
            16.006,
            11.698,
            11.051,
            10.797,
            10.123,
            4.622,
            4.067,
            2.839,
            2.812,
            5.62,
            5.863,
            7.6,
            20.712,
            68.241,
            5.639,
            3.957,
            5.107,
            8.547,
            6.392,
            5.986,
            5.362,
            2.773,
            3.029,
            2.773,
            2.85,
            3.712,
            4.222,
            2.73,
            2.498,
            3.462,
            4.657,
            3.874,
            4.549,
            7.304,
            5.482,
            5.635,
            5.567,
            2.515,
            4.92,
            5.825,
            6.428,
            5.682,
            10.421,
            10.27,
            10.205,
            11.678,
            12.911,
            13.907,
            14.082,
            14.108,
            14.699,
            14.482,
            16.41,
            15.21,
            13.201,
            12.507,
            12.336,
            5.813,
            3.705,
            4.704,
            4.421,
            3.901,
            3.498,
            7.035,
            8.662,
            9.627,
            11.952,
            12.466,
            8.039,
            4.105,
            4.66,
            4.686,
            4.376,
            4.251,
            4.515,
            4.642,
            4.051,
            3.737,
            4.11,
            3.685,
            3.981,
            3.568,
            6.046,
            8.999,
            7.654,
            5.677,
            3.596,
            4.991,
            6.12,
            4.026,
            3.88,
            4.024,
            6.999,
            4.952,
            5.066,
            8.804,
            9.726,
            6.882,
            4.256,
            4.442,
            4.201,
            5.755,
            6.957,
            7.487,
            5.731,
            5.513,
            6.753,
            4.643,
            4.615,
            6.205,
            5.205,
            6.682,
            7.83,
            8.849,
            11.357,
            5.015,
            3.801,
            3.721,
            3.552,
            4.7,
            6.383,
            6.174,
            3.953,
            3.938,
            4.016,
            5.489,
            4.777,
            4.995,
            6.464,
            4.247,
            4.359,
            6.543,
            5.155,
            5.017,
            6.875,
            8.283,
            5.99,
            3.732,
            3.608,
            6.081,
            8.463,
            14.215,
            19.805,
            5.949,
            4.486,
            4.226,
            5.087,
            5.233,
            6.37,
            7.379,
            5.89,
            5.719,
            5.831,
            5.13,
            7.521,
            9.942,
            12.943,
            9.559,
            8.208,
            8.594,
            7.078,
            6.059,
            5.555,
            7.689,
            6.574,
            5.86,
            6.476,
            5.827,
            6.787,
            7.906,
            6.028,
            7.329,
            6.357,
            6.877,
            6.646,
            6.807,
            6.94,
            6.914,
            6.625,
            7.423,
            9.764,
            6.475,
            6.469,
            6.018,
            6.528,
            6.593,
            5.494,
            6.231,
            6.282,
            6.065,
            6.21,
            6.443,
            6.367,
            5.91,
            5.451,
            5.776,
            6.056,
            6.134,
            7.187,
            12.647,
            6.431,
            6.031,
            6.067,
            6.642,
            5.857,
            6.271,
            6.092,
            5.6,
            4.922,
            5.663,
            5.934,
            5.744,
            6.587,
            8.765,
            8.207,
            8.217,
            8.085,
            8.41,
            9.06,
            8.381,
            8.074,
            7.975,
            8.589,
            7.976,
            7.93,
            7.971,
            8.627,
            8.724,
            7.954,
            8.474,
            8.954,
            8.273,
            8.047,
            7.651,
            8.292,
            8.128,
            7.581,
            8.333,
            7.358,
            7.864,
            8.208,
            8.006,
            8.804,
            8.548,
            7.877,
            7.368,
            7.501,
            7.247,
            8.37,
            8.025,
            7.279,
            7.424,
            7.435,
            7.39,
            7.787,
            7.415,
            7.434,
            8.136,
            7.918,
            7.386,
            7.122,
            6.597,
            6.619,
            7.165,
            7.13,
            7.001,
            7.243,
            6.807,
            6.513,
            6.411,
            6.679,
            6.638,
            6.273,
            6.552,
            6.602,
            6.679,
            6.429,
            6.675,
            6.692,
            6.062,
            6.783,
            7.101,
            8.394,
            14.814,
            468.2,
            40.23,
            832.99,
            17.029,
            9.496,
            7.906,
            6.958,
            6.491,
            6.484,
            6.078,
            5.906,
            5.522,
            5.299,
            5.093,
            5.078,
            5.061,
            4.734,
            4.643,
            4.432,
            4.479,
            4.429,
            4.413,
            4.186,
            4.671,
            4.944,
            7.046,
            10.202,
            8.854,
            5.372,
            4.439,
            3.784,
            3.603,
            3.481,
            5.828,
            4.641,
            3.087,
            3.502,
            4.484,
            4.135,
            8.091,
            7.076,
            6.64,
            6.439,
            4.306,
            3.617,
            5.108,
            4.835,
            5.125,
            4.901,
            3.445,
            3.949,
            5.88,
            5.407,
            5.074,
            4.774,
            4.91,
            4.704,
            4.463,
            4.488,
            2.139,
            3.957,
            4.086,
            3.989,
            4.326,
            4.573,
            4.335,
            4.463,
            4.487,
            3.042,
            2.81,
            2.599,
            2.673,
            2.858,
            2.617
          ],
          [
            1.385,
            1.385,
            1.385,
            1.385,
            1.385,
            1.477,
            1.477,
            1.477,
            1.477,
            1.477,
            1.477,
            1.477,
            1.477,
            1.477,
            1.477,
            1.477,
            1.477,
            1.477,
            1.477,
            1.477,
            1.477,
            1.477,
            1.477,
            1.477,
            1.477,
            1.477,
            1.477,
            1.477,
            1.477,
            1.477,
            1.477,
            1.477,
            1.477,
            1.477,
            1.477,
            1.477,
            1.477,
            1.477,
            1.477,
            1.477,
            1.477,
            1.477,
            1.477,
            1.477,
            1.477,
            1.477,
            1.477,
            1.477,
            1.477,
            1.477,
            1.477,
            1.477,
            1.477,
            1.477,
            1.477,
            1.477,
            1.477,
            1.477,
            1.477,
            1.477,
            1.477,
            1.477,
            1.477,
            1.477,
            1.477,
            1.477,
            1.477,
            1.477,
            1.477,
            1.668,
            1.668,
            1.668,
            1.668,
            1.668,
            1.668,
            1.668,
            1.668,
            1.668,
            1.668,
            1.668,
            1.668,
            1.668,
            1.668,
            1.668,
            1.668,
            1.668,
            1.668,
            1.668,
            1.668,
            1.668,
            1.668,
            1.668,
            1.668,
            1.668,
            1.668,
            1.668,
            1.668,
            1.668,
            1.668,
            1.668,
            1.668,
            1.668,
            1.668,
            1.668,
            1.668,
            1.668,
            1.668,
            1.668,
            1.668,
            1.668,
            1.668,
            1.668,
            1.668,
            1.668,
            1.668,
            1.668,
            1.668,
            1.668,
            1.668,
            1.668,
            1.668,
            1.668,
            1.668,
            1.668,
            1.668,
            1.668,
            1.668,
            1.668,
            1.668,
            1.668,
            1.668,
            1.668,
            1.668,
            1.629,
            1.629,
            1.629,
            1.629,
            1.629,
            1.629,
            1.629,
            1.629,
            1.629,
            1.629,
            1.629,
            1.629,
            1.629,
            1.629,
            1.629,
            1.629,
            1.629,
            1.629,
            1.629,
            1.629,
            1.629,
            1.629,
            1.629,
            1.629,
            1.629,
            1.629,
            1.629,
            1.629,
            1.629,
            1.629,
            1.629,
            1.629,
            1.629,
            1.629,
            1.629,
            1.629,
            1.629,
            1.629,
            1.629,
            1.629,
            1.629,
            1.629,
            1.629,
            1.629,
            1.629,
            1.629,
            1.629,
            1.629,
            1.629,
            1.629,
            1.629,
            1.629,
            1.629,
            1.629,
            1.629,
            1.629,
            1.629,
            1.629,
            1.629,
            1.629,
            1.629,
            1.629,
            1.629,
            1.629,
            1.999,
            1.999,
            1.999,
            1.999,
            1.999,
            1.999,
            1.999,
            1.999,
            1.999,
            1.999,
            1.999,
            1.999,
            1.999,
            1.999,
            1.999,
            1.999,
            1.999,
            1.999,
            1.999,
            1.999,
            1.999,
            1.999,
            1.999,
            1.999,
            1.999,
            1.999,
            1.999,
            1.999,
            1.999,
            1.999,
            1.999,
            1.999,
            1.999,
            1.999,
            1.999,
            1.999,
            1.999,
            1.999,
            1.999,
            1.999,
            1.999,
            1.999,
            1.999,
            1.999,
            1.999,
            1.999,
            1.999,
            1.999,
            1.999,
            1.999,
            1.999,
            1.999,
            1.999,
            1.999,
            1.999,
            1.999,
            1.999,
            1.999,
            1.999,
            1.999,
            1.999,
            1.999,
            1.999,
            1.999,
            1.864,
            1.864,
            1.864,
            1.864,
            1.864,
            1.864,
            1.864,
            1.864,
            1.864,
            1.864,
            1.864,
            1.864,
            1.864,
            1.864,
            1.864,
            1.864,
            1.864,
            1.864,
            1.864,
            1.864,
            1.864,
            1.864,
            1.864,
            1.864,
            1.864,
            1.864,
            1.864,
            1.864,
            1.864,
            1.864,
            1.864,
            1.864,
            1.864,
            1.864,
            1.864,
            1.864,
            1.864,
            1.864,
            1.864,
            1.864,
            1.864,
            1.864,
            1.864,
            1.864,
            1.864,
            1.864,
            1.864,
            1.864,
            1.864,
            1.864,
            1.864,
            1.864,
            1.864,
            1.864,
            1.864,
            1.864,
            1.864,
            1.864,
            1.864,
            1.864,
            1.864,
            1.864,
            1.864,
            1.864,
            2.319,
            2.319,
            2.319,
            2.319,
            2.319,
            2.319,
            2.319,
            2.319,
            2.319,
            2.319,
            2.319,
            2.319,
            2.319,
            2.319,
            2.319,
            2.319,
            2.319,
            2.319,
            2.319,
            2.319,
            2.319,
            2.319,
            2.319,
            2.319,
            2.319,
            2.319,
            2.319,
            2.319,
            2.319,
            2.319,
            2.319,
            2.319,
            2.319,
            2.319,
            2.319,
            2.319,
            2.319,
            2.319,
            2.319,
            2.319,
            2.319,
            2.319,
            2.319,
            2.319,
            2.319,
            2.319,
            2.319,
            2.319,
            2.319,
            2.319,
            2.319,
            2.319,
            2.319,
            2.319,
            2.319,
            2.319,
            2.319,
            2.319,
            2.319,
            2.319,
            2.319,
            2.319,
            2.319,
            2.319,
            3.031,
            3.031,
            3.031,
            3.031,
            3.031,
            3.031,
            3.031,
            3.031,
            3.031,
            3.031,
            3.031,
            3.031,
            3.031,
            3.031,
            3.031,
            3.031,
            3.031,
            3.031,
            3.031,
            3.031,
            3.031,
            3.031,
            3.031,
            3.031,
            3.031,
            3.031,
            3.031,
            3.031,
            3.031,
            3.031,
            3.031,
            3.031,
            3.031,
            3.031,
            3.031,
            3.031,
            3.031,
            3.031,
            3.031,
            3.031,
            3.031,
            3.031,
            3.031,
            3.031,
            3.031,
            3.031,
            3.031,
            3.031,
            3.031,
            3.031,
            3.031,
            3.031,
            3.031,
            3.031,
            3.031,
            3.031,
            3.031,
            3.031,
            3.031,
            3.031,
            3.031,
            3.031,
            3.031,
            3.031,
            3.491,
            3.491,
            3.491,
            3.491,
            3.491,
            3.491,
            3.491,
            3.491,
            3.491,
            3.491,
            3.491,
            3.491,
            3.491,
            3.491,
            3.491,
            3.491,
            3.491,
            3.491,
            3.491,
            3.491,
            3.491,
            3.491,
            3.491,
            3.491,
            3.491,
            3.491,
            3.491,
            3.491,
            3.491,
            3.491,
            3.491,
            3.491,
            3.491,
            3.491,
            3.491,
            3.491,
            3.491,
            3.491,
            3.491,
            3.491,
            3.491,
            3.491,
            3.491,
            3.491,
            3.491,
            3.491,
            3.491,
            3.491,
            3.491,
            3.491,
            3.491,
            3.491,
            3.491,
            3.491,
            3.491,
            3.491,
            3.491,
            3.491,
            3.491,
            3.491,
            3.491,
            3.491,
            3.491,
            3.491,
            3.557,
            3.557,
            3.557,
            3.557,
            3.557,
            3.557,
            3.557,
            3.557,
            3.557,
            3.557,
            3.557,
            3.557,
            3.557,
            3.557,
            3.557,
            3.557,
            3.557,
            3.557,
            3.557,
            3.557,
            3.557,
            3.557,
            3.557,
            3.557,
            3.557,
            3.557,
            3.557,
            3.557,
            3.557,
            3.557,
            3.557,
            3.557,
            3.557,
            3.557,
            3.557,
            3.557,
            3.557,
            3.557,
            3.557,
            3.557,
            3.557,
            3.557,
            3.557,
            3.557,
            3.557,
            3.557,
            3.557,
            3.557,
            3.557,
            3.557,
            3.557,
            3.557,
            3.557,
            3.557,
            3.557,
            3.557,
            3.557,
            3.557,
            3.557,
            3.557,
            3.557,
            3.557,
            3.557,
            3.557,
            3.803,
            3.803,
            3.803,
            3.803,
            3.803,
            3.803,
            3.803,
            3.803,
            3.803,
            3.803,
            3.803,
            3.803,
            3.803,
            3.803,
            3.803,
            3.803,
            3.803,
            3.803,
            3.803,
            3.803,
            3.803,
            3.803,
            3.803,
            3.803,
            3.803,
            3.803,
            3.803,
            3.803,
            3.803,
            3.803,
            3.803,
            3.803,
            3.803,
            3.803,
            3.803,
            3.803,
            3.803,
            3.803,
            3.803,
            3.803,
            3.803,
            3.803,
            3.803,
            3.803,
            3.803,
            3.803,
            3.803,
            3.803,
            3.803,
            3.803,
            3.803,
            3.803,
            3.803,
            3.803,
            3.803,
            3.803,
            3.803,
            3.803,
            3.803,
            3.803,
            3.803,
            3.803,
            3.803,
            3.803,
            5.052,
            5.052,
            5.052,
            5.052,
            5.052,
            5.052,
            5.052,
            5.052,
            5.052,
            5.052,
            5.052,
            5.052,
            5.052,
            5.052,
            5.052,
            5.052,
            5.052,
            5.052,
            5.052,
            5.052,
            5.052,
            5.052,
            5.052,
            5.052,
            5.052,
            5.052,
            5.052,
            5.052,
            5.052,
            5.052,
            5.052,
            5.052,
            5.052,
            5.052,
            5.052,
            5.052,
            5.052,
            5.052,
            5.052,
            5.052,
            5.052,
            5.052,
            5.052,
            5.052,
            5.052,
            5.052,
            5.052,
            5.052,
            5.052,
            5.052,
            5.052,
            5.052,
            5.052,
            5.052,
            5.052,
            5.052,
            5.052,
            5.052,
            5.052,
            5.052,
            5.052,
            5.052,
            5.052,
            5.052,
            5.04,
            5.04,
            5.04,
            5.04,
            5.04,
            5.04,
            5.04,
            5.04,
            5.04,
            5.04,
            5.04,
            5.04,
            5.04,
            5.04,
            5.04,
            5.04,
            5.04,
            5.04,
            5.04,
            5.04,
            5.04,
            5.04,
            5.04,
            5.04,
            5.04,
            5.04,
            5.04,
            5.04,
            5.04,
            5.04,
            5.04,
            5.04,
            5.04,
            5.04,
            5.04,
            5.04,
            5.04,
            5.04,
            5.04,
            5.04,
            5.04,
            5.04,
            5.04,
            5.04,
            5.04,
            5.04,
            5.04,
            5.04,
            5.04,
            5.04,
            5.04,
            5.04,
            5.04,
            5.04,
            5.04,
            5.04,
            5.04,
            5.04,
            5.04,
            5.04,
            5.04,
            5.04,
            5.04,
            5.04,
            5.191,
            5.191,
            5.191,
            5.191,
            5.191,
            5.191,
            5.191,
            5.191,
            5.191,
            5.191,
            5.191,
            5.191,
            5.191,
            5.191,
            5.191,
            5.191,
            5.191,
            5.191,
            5.191,
            5.191,
            5.191,
            5.191,
            5.191,
            5.191,
            5.191,
            5.191,
            5.191,
            5.191,
            5.191,
            5.191,
            5.191,
            5.191,
            5.191,
            5.191,
            5.191,
            5.191,
            5.191,
            5.191,
            5.191,
            5.191,
            5.191,
            5.191,
            5.191,
            5.191,
            5.191,
            5.191,
            5.191,
            5.191,
            5.191,
            5.191,
            5.191,
            5.191,
            5.191,
            5.191,
            5.191,
            5.191,
            5.191,
            5.191,
            5.191,
            5.191,
            5.191,
            5.191,
            5.191,
            5.191,
            4.29,
            4.29,
            4.29,
            4.29,
            4.29,
            4.29,
            4.29,
            4.29,
            4.29,
            4.29,
            4.29,
            4.29,
            4.29,
            4.29,
            4.29,
            4.29,
            4.29,
            4.29,
            4.29,
            4.29,
            4.29,
            4.29,
            4.29,
            4.29,
            4.29,
            4.29,
            4.29,
            4.29,
            4.29
          ],
          [
            1.712,
            1.711,
            1.713,
            1.712,
            1.714,
            1.784,
            1.787,
            1.783,
            1.784,
            1.785,
            1.787,
            1.785,
            1.786,
            1.781,
            1.787,
            1.785,
            1.782,
            1.784,
            1.781,
            1.779,
            1.781,
            1.78,
            1.782,
            1.781,
            1.777,
            1.773,
            1.774,
            1.774,
            1.771,
            1.777,
            1.774,
            1.785,
            1.783,
            1.774,
            1.775,
            1.775,
            1.78,
            1.774,
            1.773,
            1.777,
            1.78,
            1.788,
            1.792,
            1.801,
            1.82,
            1.871,
            2.852,
            2.981,
            3.088,
            3.371,
            4.917,
            5.103,
            5.63,
            6.226,
            7.059,
            8.719,
            10.413,
            16.32,
            96.722,
            49.775,
            12.06,
            7.583,
            4.979,
            4.166,
            3.227,
            2.918,
            1.669,
            1.669,
            2.883,
            3.217,
            3.57,
            4.502,
            5.09,
            7.67,
            9.692,
            18.606,
            36.138,
            595.25,
            20.6,
            13.349,
            12.71,
            9.445,
            7.931,
            6.943,
            4.566,
            3.978,
            3.781,
            3.447,
            2.595,
            2.507,
            2.066,
            2.02,
            1.998,
            1.979,
            1.988,
            2.26,
            2.213,
            2.623,
            2.596,
            2.584,
            2.562,
            2.605,
            2.665,
            2.846,
            2.916,
            2.72,
            2.528,
            2.43,
            2.421,
            3.03,
            3.042,
            3.104,
            3.185,
            2.578,
            2.694,
            2.237,
            2.157,
            2.158,
            2.153,
            2.152,
            2.149,
            2.15,
            2.162,
            2.164,
            2.137,
            2.141,
            2.166,
            2.136,
            2.118,
            2.114,
            2.121,
            2.14,
            2.616,
            2.782,
            4.021,
            4.56,
            5.471,
            6.853,
            8.267,
            12.011,
            16.814,
            14.442,
            11.407,
            10.12,
            8.066,
            7.197,
            6.423,
            5.728,
            3.605,
            3.274,
            2.992,
            2.891,
            2.832,
            2.817,
            2.84,
            2.92,
            2.397,
            2.403,
            2.402,
            2.423,
            2.069,
            2.055,
            2.051,
            2.044,
            2.043,
            2.039,
            2.049,
            2.048,
            2.032,
            2.081,
            2.098,
            4.474,
            4.86,
            5.305,
            5.613,
            6.727,
            8.766,
            14.042,
            58.68,
            31.105,
            8.85,
            5.629,
            4.064,
            3.538,
            3.599,
            3.415,
            3.333,
            2.661,
            2.713,
            2.893,
            3.542,
            6.646,
            9.218,
            13.912,
            21.269,
            344.23,
            422.68,
            35.484,
            18.815,
            8.773,
            6.588,
            5.777,
            5.33,
            3.574,
            3.365,
            2.653,
            2.574,
            2.516,
            2.471,
            2.454,
            2.43,
            3.394,
            3.385,
            3.447,
            3.731,
            5.731,
            6.389,
            7.623,
            8.399,
            8.134,
            6.778,
            5.593,
            5.019,
            2.815,
            2.728,
            2.374,
            2.352,
            2.34,
            2.327,
            2.309,
            2.29,
            2.288,
            3.838,
            3.929,
            4.08,
            4.309,
            4.501,
            5.291,
            6.874,
            12.733,
            111.31,
            8.916,
            5.015,
            4.028,
            3.464,
            3.51,
            3.483,
            3.591,
            3.734,
            3.542,
            4.007,
            4.556,
            5.186,
            6.705,
            7.836,
            12.762,
            33.107,
            78.039,
            13.329,
            8.871,
            4.653,
            3.881,
            3.543,
            3.397,
            3.233,
            3.105,
            3.016,
            2.951,
            2.892,
            2.844,
            2.811,
            2.778,
            2.816,
            2.789,
            2.773,
            2.759,
            2.741,
            2.707,
            2.693,
            2.685,
            2.702,
            2.661,
            2.624,
            2.592,
            2.588,
            2.546,
            2.52,
            2.549,
            4.9,
            4.999,
            4.887,
            5.12,
            5.456,
            6.575,
            7.84,
            11.971,
            29.401,
            52.387,
            9.573,
            6.26,
            5.77,
            6.381,
            7.413,
            11.839,
            20.311,
            27.52,
            9.298,
            7.082,
            6.747,
            5.838,
            5.634,
            5.301,
            2.988,
            2.868,
            2.777,
            2.723,
            2.685,
            2.65,
            5.758,
            5.681,
            5.795,
            6.767,
            8.355,
            11.608,
            12.941,
            13.251,
            8.398,
            5.474,
            4.586,
            4.566,
            4.592,
            4.587,
            5.15,
            6.371,
            4.778,
            3.753,
            4.48,
            4.421,
            4.684,
            5.624,
            12.991,
            21.621,
            93.425,
            428.28,
            52.83,
            16.891,
            9.379,
            7.232,
            3.456,
            3.373,
            3.218,
            3.177,
            3.179,
            3.164,
            3.155,
            3.283,
            6.956,
            6.717,
            6.649,
            6.939,
            6.701,
            6.973,
            7.507,
            8.599,
            9.584,
            13.386,
            14.919,
            25.883,
            78.947,
            179.02,
            26.51,
            12.115,
            4.484,
            5.707,
            11.742,
            442.24,
            13.413,
            8.864,
            7.36,
            6.832,
            4.831,
            4.115,
            3.791,
            3.581,
            5.548,
            5.755,
            5.521,
            5.496,
            5.558,
            6.541,
            8.098,
            13.281,
            38.132,
            43.398,
            102.49,
            69.136,
            20.229,
            17.302,
            24.397,
            109.78,
            42.761,
            31.691,
            20.861,
            11.198,
            8.274,
            7.513,
            7.1,
            7.149,
            3.78,
            3.653,
            3.657,
            3.639,
            4.26,
            4.089,
            4.091,
            4.562,
            5.488,
            4.823,
            4.837,
            4.797,
            3.552,
            3.941,
            3.973,
            3.886,
            6.769,
            8.116,
            11.525,
            10.129,
            5.943,
            4.663,
            3.876,
            3.828,
            3.779,
            3.695,
            3.619,
            3.533,
            6.054,
            6.166,
            6.254,
            6.823,
            7.317,
            8.404,
            10.7,
            15.194,
            24.03,
            202.56,
            18.61,
            11.529,
            11.327,
            12.867,
            13.175,
            15.886,
            17.389,
            23.938,
            9.252,
            6.937,
            4.96,
            4.478,
            6.284,
            8.151,
            12.456,
            51.199,
            90.151,
            19.617,
            10.641,
            9.335,
            5.484,
            4.826,
            4.887,
            6.388,
            5.707,
            4.696,
            6.028,
            8.49,
            14.01,
            9.309,
            8.111,
            7.656,
            4.69,
            4.606,
            4.564,
            4.631,
            4.511,
            5.167,
            6.46,
            11.464,
            9.874,
            7.961,
            6.794,
            4.564,
            5.205,
            6.226,
            6.733,
            5.489,
            4.517,
            4.582,
            5.623,
            5.21,
            4.378,
            4.384,
            4.309,
            5.816,
            5.703,
            6.068,
            8.169,
            13.647,
            24.026,
            28.267,
            16.382,
            12.208,
            11.589,
            11.347,
            10.708,
            5.793,
            5.36,
            4.5,
            4.483,
            6.651,
            6.857,
            8.391,
            21.015,
            68.333,
            6.667,
            5.32,
            6.223,
            9.258,
            7.315,
            6.963,
            6.434,
            4.51,
            4.672,
            4.51,
            4.558,
            5.141,
            5.52,
            4.484,
            4.347,
            4.964,
            5.86,
            5.259,
            5.774,
            8.124,
            6.534,
            6.664,
            6.607,
            4.356,
            6.071,
            6.825,
            7.347,
            6.703,
            11.012,
            10.869,
            10.807,
            12.208,
            13.392,
            14.355,
            14.524,
            14.549,
            15.123,
            14.912,
            16.791,
            15.62,
            13.672,
            13.003,
            12.839,
            6.815,
            5.136,
            5.897,
            5.674,
            5.279,
            4.989,
            7.883,
            9.364,
            10.263,
            12.47,
            12.963,
            8.791,
            5.431,
            5.862,
            5.883,
            5.639,
            5.704,
            5.903,
            6.001,
            5.557,
            5.332,
            5.6,
            5.296,
            5.506,
            5.215,
            7.143,
            9.77,
            8.547,
            6.834,
            5.235,
            6.275,
            7.205,
            5.538,
            5.433,
            5.537,
            7.966,
            6.244,
            6.334,
            9.591,
            10.443,
            7.863,
            5.708,
            5.848,
            5.667,
            6.898,
            7.929,
            8.397,
            6.878,
            6.698,
            7.751,
            6.002,
            5.981,
            7.278,
            6.447,
            7.689,
            8.704,
            9.632,
            11.977,
            6.294,
            5.377,
            5.321,
            5.204,
            6.046,
            7.43,
            7.251,
            5.485,
            5.475,
            5.531,
            6.678,
            6.106,
            6.278,
            7.5,
            5.701,
            5.785,
            7.568,
            6.406,
            6.295,
            7.857,
            9.115,
            7.095,
            6.281,
            6.208,
            7.905,
            9.856,
            15.086,
            20.44,
            7.805,
            6.756,
            6.586,
            7.169,
            7.273,
            8.13,
            8.943,
            7.759,
            7.631,
            7.715,
            7.2,
            9.06,
            11.152,
            13.894,
            10.812,
            9.638,
            9.969,
            8.695,
            7.889,
            7.509,
            9.2,
            8.291,
            7.737,
            8.214,
            7.712,
            8.461,
            9.382,
            7.865,
            8.901,
            8.12,
            8.533,
            8.348,
            8.477,
            8.584,
            8.563,
            8.331,
            8.979,
            10.993,
            8.212,
            8.208,
            7.858,
            8.254,
            8.306,
            7.464,
            8.022,
            8.061,
            7.893,
            8.005,
            8.188,
            8.127,
            7.775,
            7.432,
            7.674,
            7.886,
            7.946,
            8.785,
            13.618,
            8.178,
            7.86,
            7.888,
            8.338,
            7.727,
            8.045,
            7.907,
            7.534,
            7.045,
            7.581,
            7.785,
            7.642,
            8.295,
            10.111,
            9.631,
            9.64,
            9.528,
            9.805,
            10.368,
            9.78,
            9.518,
            9.435,
            9.959,
            9.435,
            9.396,
            9.431,
            9.991,
            10.076,
            9.417,
            9.859,
            10.275,
            9.687,
            9.495,
            9.162,
            9.704,
            9.564,
            9.103,
            9.739,
            8.919,
            9.341,
            9.632,
            9.46,
            10.145,
            9.924,
            9.352,
            8.927,
            9.037,
            8.828,
            9.77,
            9.477,
            8.854,
            8.973,
            8.983,
            8.945,
            9.276,
            8.966,
            8.982,
            9.571,
            9.387,
            8.942,
            8.725,
            8.303,
            8.32,
            8.76,
            8.732,
            8.716,
            8.911,
            8.561,
            8.328,
            8.249,
            8.459,
            8.426,
            8.142,
            8.359,
            8.398,
            8.459,
            8.263,
            8.456,
            8.469,
            7.98,
            8.541,
            8.796,
            9.869,
            15.697,
            468.23,
            40.564,
            833.01,
            17.802,
            10.822,
            9.458,
            8.681,
            8.311,
            8.306,
            7.993,
            7.863,
            7.578,
            7.417,
            7.272,
            7.262,
            7.25,
            7.025,
            6.964,
            6.826,
            6.856,
            6.823,
            6.813,
            6.668,
            6.983,
            7.168,
            8.751,
            11.447,
            10.263,
            7.47,
            6.83,
            6.424,
            6.318,
            6.25,
            7.805,
            6.963,
            6.039,
            6.261,
            6.859,
            6.636,
            9.613,
            8.776,
            8.428,
            8.27,
            6.745,
            6.327,
            6.671,
            6.464,
            6.684,
            6.514,
            5.502,
            5.831,
            7.279,
            6.903,
            6.645,
            6.418,
            6.521,
            6.367,
            6.191,
            6.209,
            4.794,
            5.837,
            5.925,
            5.858,
            6.093,
            6.271,
            6.099,
            6.191,
            6.208,
            5.26,
            5.129,
            5.016,
            5.055,
            5.155,
            5.026
          ]
        ]
      }
    }
  },
  "experimental_conditions": {
    "001": {
      "0": {
        "correction": [
          {
            "x4_code": null,
            "free_txt": [
              ".BACKGROUND CORRECTION USING S, NA AND U-238",
              " BLACK RESONANCE FILTERS"
            ]
          }
        ],
        "covariance": [
          {
            "x4_code": null,
            "free_txt": [
              ".PARALLEL PROPAGATION OF CORRELATED AND UNCORRELATED",
              " UNCERTAINTY WITH CODE ANGELA",
              "     ENERGY GROUPS(EV)",
              "     NR      FROM          TO",
              "      1   2.485E00    2.691E00",
              "      2   2.691E00    6.874E00",
              "      3   6.874E00    1.377E01",
              "      4   1.377E01    2.175E01",
              "      5   2.175E01    4.000E01",
              "      6   4.000E01    8.077E01",
              "      7   8.077E01    1.156E02",
              "      8   1.156E02    1.938E02",
              "      9   1.938E02    3.827E02",
              "     10   3.827E02    7.225E02",
              "     11   7.225E02    1.844E03",
              "     12   1.844E03    6.129E03",
              "     13   6.129E03    2.102E04",
              "     14   2.102E04    1.832E05",
              "     15   1.832E05    4.094E05",
              " UNCERTAINTY CORRELATION BETWEEN GROUPS",
              " ENERGY GROUPS/",
              " 1/100",
              " 2/ 57 100",
              " 3/ 73 49 100",
              " 4/ 2 2 3 100",
              " 5/ 9 9 22 1 100",
              " 6/ -6 3 26 2 28 100",
              " 7/ -8 -2 6 1 10  25 100",
              " 8/ -6 -2 2 0 5 14 6 100",
              " 9/-38 -17 0 1 24 66 28 16 100",
              " 10/-47 -23  -7 1 23 67 29 17 85 100",
              " 11/-52 -27 -12 1 22 65 29 17 86 93 100",
              " 12/-53 -28 -17 1 19 59 26 16 82 90 95 100",
              " 13/-43 -23 -17 0 13 44 20 12 66 75 82 90 100",
              " 14/ -7 -5 -5 0 1 8 4 3 19 27 35 50 76 100",
              " 15/ 34 18 12 0 -9 -29 -13 -7 -35 -34 -30 -18 12 58 100"
            ]
          }
        ],
        "detector": [
          {
            "x4_code": "(SCIN )",
            "free_txt": [
              " XENON GAS SCINTILLATOR WITH CYLINDRICAL",
              "        SAMPLE LAYERS"
            ]
          }
        ],
        "err-analys": [
          {
            "x4_code": "(DATA-ERR1)",
            "free_txt": [
              " UNCORRELATED UNCERTAINTY"
            ]
          },
          {
            "x4_code": "(DATA-ERR2)",
            "free_txt": [
              "   CORRELATED UNCERTAINTY"
            ]
          },
          {
            "x4_code": "(ERR-T)",
            "free_txt": [
              "       TOTAL ERROR"
            ]
          }
        ],
        "facility": [
          {
            "x4_code": "(LINAC,2ZZZGEL)",
            "free_txt": [
              "  ELECTRON ACCELERATOR GELINA"
            ]
          }
        ],
        "inc-source": [
          {
            "x4_code": null,
            "free_txt": [
              ".GELINA NEUTRON SOURCE"
            ]
          }
        ],
        "method": [
          {
            "x4_code": "(TOF  )",
            "free_txt": [
              " FLIGHT PATH 11.450 M",
              ".ALTERNATE RECORDING OF CHARGED PARTICLE YIELDS",
              " OF THIN SAMPLES OF L-6 AND B-10"
            ]
          }
        ],
        "monitor": [
          {
            "x4_code": null,
            "free_txt": [
              ".RATIO NORMALISED TO .244 FROM ENDF/B-V IN THE",
              " 2 - 5 EV ENERGY RANGE"
            ]
          }
        ],
        "sample": [
          {
            "x4_code": null,
            "free_txt": [
              ".LAYERS OF 200 CM**2 OF B-10 OR LI-6,",
              " CORRESPONDING TO 4 AND 19 MG"
            ]
          }
        ],
        "status": [
          {
            "x4_code": "(PRELM)",
            "free_txt": [
              " DATA LABELLED BY C.BASTIAN AS PRELIMINARY",
              ".NUMERICAL DATA RECEIVED ON MAGNETIC TAPE"
            ]
          }
        ]
      }
    },
    "002": {
      "0": {
        "status": [
          {
            "x4_code": "(PRELM)",
            "free_txt": [
              " DATA LABELLED BY C.BASTIAN AS PRELIMINARY",
              ".NUMERICAL DATA RECEIVED ON MAGNETIC TAPE"
            ]
          }
        ]
      }
    }
  }
}