{
  "bib": {
    "title": "Measurement Of Neutron Fission Cross Sections Of 235-U(En=0.001 Ev To 30 Kev) And 239-Pu (En=0.01 To 60 Ev)",
    "authors": [
      {
        "name": "R.Gwin"
      },
      {
        "name": "R.R.Spencer"
      },
      {
        "name": "R.W.Ingle"
      },
      {
        "name": "J.H.Todd"
      },
      {
        "name": "S.W.Scoles"
      }
    ],
    "institutes": [
      {
        "x4_code": "(1USAORL)",
        "free_txt": []
      }
    ],
    "references": {
      "0": [
        {
          "x4_code": "(J,NSE,88,37,8409)",
          "free_txt": [],
          "publication_year": "1984"
        }
      ]
    },
    "facility": {
      "0": [
        {
          "x4_code": "(LINAC)",
          "free_txt": [
            " ORELA"
          ]
        }
      ]
    },
    "history": [
      {
        "x4_code": "(860821C)",
        "free_txt": []
      },
      {
        "x4_code": "(870605A)",
        "free_txt": [
          " MONITOR CORRECTED."
        ]
      }
    ]
  },
  "12905-001": {
    "extra_information": {
      "correction": {
        "0": [
          {
            "x4_code": null,
            "free_txt": [
              "DATA ARE CORRECTED FOR DEAD TIME, CONSTANT AND TIME-",
              "   DEPENDENT BACKGROUND"
            ]
          }
        ]
      },
      "detector": {
        "0": [
          {
            "x4_code": "(BF3)",
            "free_txt": [
              " TWO PARALLEL PLATE IONIZATION CHAMBERS WITH 25",
              "   PERCENT ENRICHED BF(3) AND 75 PERCENT ARGON AT 75",
              "   CM MERCURY PRESSURE. EACH DETECTOR IS 2.5 CM THICK.",
              "   ONE CHAMBER WAS PLACED AT 20.5 M TO MONITOR THE",
              "   NEUTRON FLUX AND THE OTHER ALTERNATED WITH THE",
              "   FISSION CHAMBER."
            ]
          },
          {
            "x4_code": "(FISCH)",
            "free_txt": [
              " A FOUR PART FISSION CHAMBER WITH A COATED PLATE",
              "   AND AN UNCOATED COLLECTOR PLATE SEPARATED BY 0.3 CM",
              "   IN EACH SECTION. EACH SECTION WAS ISOLATED BY 0.001",
              "   CM THICK ALUMINUM PLATES. THE CHAMBER WAS FILLED",
              "   WITH A GAS 90 PERCENT ARGON AND 10 PERCENT METHANE."
            ]
          }
        ]
      },
      "err-analys": {
        "0": [
          {
            "x4_code": "(ERR-S)",
            "free_txt": [
              " STATISTICAL ERROR"
            ]
          }
        ]
      },
      "facility": {
        "0": [
          {
            "x4_code": "(LINAC)",
            "free_txt": [
              " ORELA"
            ]
          }
        ]
      },
      "inc-source": {
        "0": [
          {
            "x4_code": "(PHOTO)",
            "free_txt": [
              " PULSED WHITE SOURCE"
            ]
          }
        ]
      },
      "method": {
        "0": [
          {
            "x4_code": "(TOF)",
            "free_txt": [
              " 21.65 METER FLIGHT PATH"
            ]
          }
        ]
      },
      "monitor": {
        "0": [
          {
            "x4_code": "(5-B-10(N,A)3-LI-7,,SIG)",
            "free_txt": []
          }
        ]
      },
      "status": {
        "0": [
          {
            "x4_code": null,
            "free_txt": [
              "DATA RECEIVED IN PRIVATE COMMUNICATION 86/7/31 FROM",
              " R. GWIN"
            ]
          },
          {
            "x4_code": "(APRVD)",
            "free_txt": [
              " R.GWIN, 86/9/5."
            ]
          }
        ]
      }
    }
  },
  "12905-002": {
    "reaction": {
      "0": {
        "x4_code": "(92-U-235(N,F),,SIG)",
        "0": {
          "code": [
            "92-U-235",
            [
              "N,F"
            ],
            ",,SIG"
          ],
          "type": null,
          "target": "92-U-235",
          "process": "N,F",
          "sf49": ",,SIG",
          "sf4": null,
          "sf5": null,
          "sf6": "SIG",
          "sf7": null,
          "sf8": null,
          "sf9": null
        },
        "type": null,
        "free_text": ""
      }
    },
    "extra_information": {
      "monitor": {
        "0": [
          {
            "x4_code": "((MONIT)92-U-235(N,F),,INT)",
            "free_txt": []
          }
        ]
      },
      "sample": {
        "0": [
          {
            "x4_code": null,
            "free_txt": [
              "ISOTOPIC COMPOSITION OF SAMPLE WAS",
              "  U-234      0.03 PERCENT",
              "  U-235     99.9  PERCENT",
              "  U-236      0.01 PERCENT",
              "SAMPLE WAS COATED 1 TO 1.4 G/M**2 AND 7.6 CM DIAMETER",
              "  ON ALUMINUM DISKS 10 CM DIAMETER AND 0.001 CM THICK."
            ]
          }
        ]
      }
    },
    "common": {
      "heads": [
        "EN-NRM-MIN",
        "EN-NRM-MAX",
        "MONIT"
      ],
      "units": [
        "EV",
        "EV",
        "B*EV"
      ],
      "data": [
        [
          0.0206
        ],
        [
          0.06239
        ],
        [
          19.26
        ]
      ]
    },
    "data": {
      "heads": [
        "EN",
        "DATA",
        "ERR-S"
      ],
      "units": [
        "EV",
        "B",
        "B"
      ],
      "data": [
        [
          0.001594,
          0.0016007,
          0.0016074,
          0.0016142,
          0.001621,
          0.0016278,
          0.0016347,
          0.0016417,
          0.0016487,
          0.0016557,
          0.0016628,
          0.0016699,
          0.0016771,
          0.0016843,
          0.0016915,
          0.0016988,
          0.0017062,
          0.0017136,
          0.001721,
          0.0017285,
          0.0017361,
          0.0017437,
          0.0017513,
          0.001759,
          0.0017668,
          0.0017746,
          0.0017824,
          0.0017903,
          0.0017983,
          0.0018063,
          0.0018143,
          0.0018225,
          0.0018306,
          0.0018389,
          0.0018471,
          0.0018555,
          0.0018639,
          0.0018723,
          0.0018808,
          0.0018894,
          0.001898,
          0.0019067,
          0.0019155,
          0.0019243,
          0.0019331,
          0.0019421,
          0.001951,
          0.0019601,
          0.0019692,
          0.0019784,
          0.0019876,
          0.0019969,
          0.0020063,
          0.0020158,
          0.0020253,
          0.0020348,
          0.0020445,
          0.0020542,
          0.002064,
          0.0020738,
          0.0020837,
          0.0020937,
          0.0021038,
          0.0021139,
          0.0021241,
          0.0021344,
          0.0021448,
          0.0021552,
          0.0021657,
          0.0021763,
          0.002187,
          0.0021977,
          0.0022086,
          0.0022195,
          0.0022304,
          0.0022415,
          0.0022527,
          0.0022639,
          0.0022752,
          0.0022866,
          0.0022981,
          0.0023097,
          0.0023213,
          0.0023331,
          0.0023449,
          0.0023569,
          0.0023689,
          0.002381,
          0.0023932,
          0.0024055,
          0.0024179,
          0.0024304,
          0.002443,
          0.0024557,
          0.0024685,
          0.0024814,
          0.0024943,
          0.0025074,
          0.0025206,
          0.0025339,
          0.0025473,
          0.0025608,
          0.0025745,
          0.0025882,
          0.002602,
          0.002616,
          0.00263,
          0.0026442,
          0.0026585,
          0.0026729,
          0.0026874,
          0.0027021,
          0.0027168,
          0.0027317,
          0.0027467,
          0.0027619,
          0.0027771,
          0.0027925,
          0.002808,
          0.0028237,
          0.0028394,
          0.0028553,
          0.0028714,
          0.0028875,
          0.0029038,
          0.0029203,
          0.0029369,
          0.0029536,
          0.0029705,
          0.0029875,
          0.0030047,
          0.003022,
          0.0030395,
          0.0030571,
          0.0030748,
          0.0030928,
          0.0031108,
          0.0031291,
          0.0031475,
          0.0031661,
          0.0031848,
          0.0032037,
          0.0032227,
          0.003242,
          0.0032614,
          0.003281,
          0.0033007,
          0.0033207,
          0.0033408,
          0.0033611,
          0.0033816,
          0.0034023,
          0.0034231,
          0.0034442,
          0.0034654,
          0.0034869,
          0.0035086,
          0.0035304,
          0.0035525,
          0.0035747,
          0.0035972,
          0.0036199,
          0.0036428,
          0.0036659,
          0.0036893,
          0.0037128,
          0.0037366,
          0.0037607,
          0.0037849,
          0.0038094,
          0.0038341,
          0.0038591,
          0.0038843,
          0.0039098,
          0.0039355,
          0.0039615,
          0.0039877,
          0.0040142,
          0.0040409,
          0.004068,
          0.0040953,
          0.0041228,
          0.0041507,
          0.0041788,
          0.0042072,
          0.0042359,
          0.004265,
          0.0042943,
          0.0043239,
          0.0043538,
          0.004384,
          0.0044145,
          0.0044454,
          0.0044766,
          0.0045081,
          0.00454,
          0.0045722,
          0.0046047,
          0.0046376,
          0.0046708,
          0.0047044,
          0.0047384,
          0.0047641,
          0.0047813,
          0.0047987,
          0.0048161,
          0.0048337,
          0.0048513,
          0.004869,
          0.0048869,
          0.0049048,
          0.0049228,
          0.0049409,
          0.0049592,
          0.0049775,
          0.0049959,
          0.0050145,
          0.0050331,
          0.0050518,
          0.0050707,
          0.0050896,
          0.0051087,
          0.0051278,
          0.0051471,
          0.0051665,
          0.005186,
          0.0052056,
          0.0052253,
          0.0052451,
          0.0052651,
          0.0052851,
          0.0053053,
          0.0053256,
          0.005346,
          0.0053665,
          0.0053871,
          0.0054079,
          0.0054287,
          0.0054497,
          0.0054708,
          0.0054921,
          0.0055135,
          0.0055349,
          0.0055566,
          0.0055783,
          0.0056002,
          0.0056222,
          0.0056443,
          0.0056665,
          0.0056889,
          0.0057115,
          0.0057341,
          0.0057569,
          0.0057798,
          0.0058029,
          0.0058261,
          0.0058495,
          0.0058729,
          0.0058966,
          0.0059203,
          0.0059442,
          0.0059683,
          0.0059925,
          0.0060169,
          0.0060414,
          0.006066,
          0.0060908,
          0.0061158,
          0.0061409,
          0.0061661,
          0.0061916,
          0.0062171,
          0.0062429,
          0.0062688,
          0.0062948,
          0.006321,
          0.0063474,
          0.006374,
          0.0064007,
          0.0064276,
          0.0064546,
          0.0064819,
          0.0065093,
          0.0065368,
          0.0065646,
          0.0065925,
          0.0066206,
          0.0066489,
          0.0066774,
          0.006706,
          0.0067348,
          0.0067639,
          0.0067931,
          0.0068225,
          0.0068521,
          0.0068818,
          0.0069118,
          0.006942,
          0.0069724,
          0.0070029,
          0.0070337,
          0.0070647,
          0.0070959,
          0.0071272,
          0.0071588,
          0.0071906,
          0.0072227,
          0.0072549,
          0.0072873,
          0.00732,
          0.0073529,
          0.007386,
          0.0074193,
          0.0074529,
          0.0074867,
          0.0075207,
          0.007555,
          0.0075894,
          0.0076242,
          0.0076591,
          0.0076943,
          0.0077298,
          0.0077655,
          0.0078014,
          0.0078376,
          0.007874,
          0.0079107,
          0.0079477,
          0.0079849,
          0.0080224,
          0.0080601,
          0.0080981,
          0.0081364,
          0.0081749,
          0.0082138,
          0.0082528,
          0.0082922,
          0.0083319,
          0.0083718,
          0.0084121,
          0.0084526,
          0.0084934,
          0.0085345,
          0.0085759,
          0.0086177,
          0.0086597,
          0.008702,
          0.0087446,
          0.0087876,
          0.0088309,
          0.0088745,
          0.0089184,
          0.0089626,
          0.0090072,
          0.0090521,
          0.0090973,
          0.0091429,
          0.0091889,
          0.0092351,
          0.0092818,
          0.0093287,
          0.0093761,
          0.0094238,
          0.0094718,
          0.0095203,
          0.0095691,
          0.0096182,
          0.0096678,
          0.0097177,
          0.0097681,
          0.0098188,
          0.0098699,
          0.0099214,
          0.0099734,
          0.010026,
          0.010078,
          0.010132,
          0.010185,
          0.010239,
          0.010294,
          0.010349,
          0.010404,
          0.01046,
          0.010516,
          0.010572,
          0.01063,
          0.010687,
          0.010745,
          0.010804,
          0.010863,
          0.010922,
          0.010982,
          0.011043,
          0.011104,
          0.011165,
          0.011227,
          0.01129,
          0.011353,
          0.011416,
          0.01148,
          0.011545,
          0.01161,
          0.011676,
          0.011742,
          0.011809,
          0.011877,
          0.011945,
          0.012013,
          0.012083,
          0.012152,
          0.012223,
          0.012294,
          0.012365,
          0.012438,
          0.012511,
          0.012584,
          0.012658,
          0.012733,
          0.012809,
          0.012885,
          0.012962,
          0.01304,
          0.013118,
          0.013197,
          0.013276,
          0.013357,
          0.013438,
          0.01352,
          0.013603,
          0.013686,
          0.01377,
          0.013855,
          0.013941,
          0.014027,
          0.014115,
          0.014203,
          0.014292,
          0.014382,
          0.014473,
          0.014564,
          0.014657,
          0.01475,
          0.014844,
          0.014939,
          0.015035,
          0.015132,
          0.01523,
          0.015329,
          0.015429,
          0.015529,
          0.015631,
          0.015734,
          0.015838,
          0.015943,
          0.016049,
          0.016155,
          0.016263,
          0.016373,
          0.016483,
          0.016594,
          0.016707,
          0.01682,
          0.016935,
          0.017051,
          0.017168,
          0.017286,
          0.017406,
          0.017527,
          0.017649,
          0.017772,
          0.017897,
          0.018023,
          0.01815,
          0.018279,
          0.018409,
          0.01854,
          0.018673,
          0.018807,
          0.018943,
          0.01908,
          0.019219,
          0.019359,
          0.019501,
          0.019644,
          0.019789,
          0.019935,
          0.020083,
          0.020233,
          0.020385,
          0.020538,
          0.020693,
          0.02085,
          0.021008,
          0.021168,
          0.02133,
          0.021494,
          0.02166,
          0.021828,
          0.021998,
          0.02217,
          0.022343,
          0.022519,
          0.022697,
          0.022877,
          0.023059,
          0.023244,
          0.02343,
          0.023619,
          0.02381,
          0.024004,
          0.024199,
          0.024398,
          0.024598,
          0.024801,
          0.025007,
          0.025215,
          0.025426,
          0.02564,
          0.025856,
          0.026075,
          0.026297,
          0.026521,
          0.026749,
          0.026979,
          0.027213,
          0.027449,
          0.027689,
          0.027932,
          0.028177,
          0.028427,
          0.028679,
          0.028935,
          0.029194,
          0.029457,
          0.029724,
          0.029994,
          0.030267,
          0.030545,
          0.030826,
          0.031111,
          0.031401,
          0.031694,
          0.031991,
          0.032293,
          0.032599,
          0.032909,
          0.033224,
          0.033543,
          0.033867,
          0.034195,
          0.034528,
          0.034867,
          0.03521,
          0.035558,
          0.035912,
          0.036271,
          0.036635,
          0.037005,
          0.03738,
          0.037761,
          0.038148,
          0.038541,
          0.03894,
          0.039346,
          0.039757,
          0.040175,
          0.0406,
          0.041032,
          0.04147,
          0.041916,
          0.042368,
          0.042829,
          0.043296,
          0.043772,
          0.044255,
          0.044746,
          0.045246,
          0.045754,
          0.04627,
          0.046796,
          0.04733,
          0.047873,
          0.048426,
          0.048989,
          0.049561,
          0.050144,
          0.050737,
          0.05134,
          0.051955,
          0.05258,
          0.053217,
          0.053865,
          0.054525,
          0.055198,
          0.055883,
          0.056581,
          0.057292,
          0.058016,
          0.058754,
          0.059507,
          0.060274,
          0.061056,
          0.061653,
          0.062055,
          0.062462,
          0.062872,
          0.063287,
          0.063705,
          0.064128,
          0.064555,
          0.064987,
          0.065422,
          0.065862,
          0.066307,
          0.066756,
          0.06721,
          0.067668,
          0.068131,
          0.068599,
          0.069071,
          0.069549,
          0.070031,
          0.070519,
          0.071011,
          0.071509,
          0.072012,
          0.072521,
          0.073034,
          0.073554,
          0.074078,
          0.074609,
          0.075145,
          0.075687,
          0.076235,
          0.076789,
          0.077348,
          0.077914,
          0.078487,
          0.079065,
          0.07965,
          0.080242,
          0.08084,
          0.081445,
          0.082056,
          0.082675,
          0.083301,
          0.083933,
          0.084573,
          0.085221,
          0.085875,
          0.086538,
          0.087208,
          0.087886,
          0.088571,
          0.089265,
          0.089967,
          0.090677,
          0.091396,
          0.092124,
          0.09286,
          0.093605,
          0.094359,
          0.095122,
          0.095894,
          0.096676,
          0.097467,
          0.098268,
          0.099079,
          0.099901,
          0.10073,
          0.10157,
          0.10243,
          0.10329,
          0.10416,
          0.10505,
          0.10595,
          0.10685,
          0.10777,
          0.10871,
          0.10965,
          0.11061,
          0.11157,
          0.11256,
          0.11355,
          0.11456,
          0.11558,
          0.11662,
          0.11767,
          0.11873,
          0.11981,
          0.1209,
          0.12201,
          0.12313,
          0.12427,
          0.12542,
          0.12659,
          0.12778,
          0.12898,
          0.1302,
          0.13144,
          0.1327,
          0.13397,
          0.13526,
          0.13658,
          0.13791,
          0.13926,
          0.14063,
          0.14202,
          0.14343,
          0.14486,
          0.14631,
          0.14779,
          0.14929,
          0.15081,
          0.15235,
          0.15392,
          0.15551,
          0.15713,
          0.15877,
          0.16044,
          0.16214,
          0.16386,
          0.16561,
          0.16739,
          0.16919,
          0.17103,
          0.17289,
          0.17479,
          0.17672,
          0.17868,
          0.18067,
          0.1827,
          0.18476,
          0.18685,
          0.18899,
          0.19115,
          0.19336,
          0.1956,
          0.19789,
          0.20021,
          0.20258,
          0.20498,
          0.20743,
          0.20993,
          0.21247,
          0.21506,
          0.21769,
          0.22037,
          0.2231,
          0.22589,
          0.22872,
          0.23161,
          0.23456,
          0.23756,
          0.24062,
          0.24374,
          0.24692,
          0.25016,
          0.25346,
          0.25684,
          0.26028,
          0.26379,
          0.26737,
          0.27102,
          0.27475,
          0.27856,
          0.28245,
          0.28642,
          0.29047,
          0.29461,
          0.29884,
          0.30316,
          0.30758,
          0.31209,
          0.3167,
          0.32142,
          0.32624,
          0.33117,
          0.33622,
          0.34138,
          0.34666,
          0.35206,
          0.35759,
          0.36325,
          0.36905,
          0.37499,
          0.38107,
          0.3873,
          0.39369,
          0.40023,
          0.40694,
          0.41382,
          0.42088,
          0.42811,
          0.43554,
          0.44316,
          0.45098,
          0.45901,
          0.46726,
          0.47573,
          0.48443,
          0.49338,
          0.49887,
          0.50072,
          0.50258,
          0.50445,
          0.50633,
          0.50822,
          0.51012,
          0.51203,
          0.51395,
          0.51589,
          0.51783,
          0.51979,
          0.52175,
          0.52373,
          0.52572,
          0.52772,
          0.52973,
          0.53176,
          0.53379,
          0.53584,
          0.5379,
          0.53997,
          0.54205,
          0.54415,
          0.54625,
          0.54837,
          0.5505,
          0.55265,
          0.5548,
          0.55697,
          0.55916,
          0.56135,
          0.56356,
          0.56578,
          0.56801,
          0.57026,
          0.57252,
          0.57479,
          0.57708,
          0.57938,
          0.5817,
          0.58403,
          0.58637,
          0.58873,
          0.5911,
          0.59348,
          0.59588,
          0.5983,
          0.60073,
          0.60317,
          0.60563,
          0.60811,
          0.61059,
          0.6131,
          0.61562,
          0.61816,
          0.62071,
          0.62327,
          0.62586,
          0.62846,
          0.63107,
          0.6337,
          0.63635,
          0.63902,
          0.6417,
          0.6444,
          0.64711,
          0.64985,
          0.6526,
          0.65537,
          0.65815,
          0.66095,
          0.66378,
          0.66662,
          0.66947,
          0.67235,
          0.67524,
          0.67816,
          0.68109,
          0.68404,
          0.68701,
          0.69,
          0.69301,
          0.69604,
          0.69909,
          0.70216,
          0.70525,
          0.70836,
          0.71149,
          0.71464,
          0.71781,
          0.72101,
          0.72422,
          0.72746,
          0.73071,
          0.73399,
          0.7373,
          0.74062,
          0.74397,
          0.74734,
          0.75073,
          0.75415,
          0.75759,
          0.76105,
          0.76454,
          0.76805,
          0.77158,
          0.77514,
          0.77872,
          0.78233,
          0.78597,
          0.78963,
          0.79331,
          0.79702,
          0.80076,
          0.80452,
          0.80831,
          0.81213,
          0.81597,
          0.81985,
          0.82375,
          0.82767,
          0.83163,
          0.83561,
          0.83962,
          0.84366,
          0.84773,
          0.85183,
          0.85596,
          0.86012,
          0.86431,
          0.86853,
          0.87279,
          0.87707,
          0.88138,
          0.88573,
          0.89011,
          0.89452,
          0.89896,
          0.90344,
          0.90795,
          0.9125,
          0.91708,
          0.92169,
          0.92634,
          0.93102,
          0.93574,
          0.9405,
          0.94529,
          0.95012,
          0.95498,
          0.95989,
          0.96483,
          0.96981,
          0.97482,
          0.97988,
          0.98498,
          0.99011,
          0.99529,
          1.0005,
          1.0058,
          1.0111,
          1.0164,
          1.0218,
          1.0272,
          1.0327,
          1.0382,
          1.0438,
          1.0494,
          1.055,
          1.0607,
          1.0664,
          1.0722,
          1.0781,
          1.084,
          1.0899,
          1.0959,
          1.1019,
          1.108,
          1.1141,
          1.1203,
          1.1265,
          1.1328,
          1.1391,
          1.1455,
          1.152,
          1.1585,
          1.165,
          1.1716,
          1.1783,
          1.185,
          1.1918,
          1.1986,
          1.2055,
          1.2125,
          1.2195,
          1.2266,
          1.2337,
          1.2409,
          1.2482,
          1.2555,
          1.2629,
          1.2704,
          1.2779,
          1.2855,
          1.2932,
          1.3009,
          1.3087,
          1.3166,
          1.3245,
          1.3325,
          1.3406,
          1.3488,
          1.357,
          1.3653,
          1.3737,
          1.3822,
          1.3907,
          1.3993,
          1.408,
          1.4168,
          1.4257,
          1.4346,
          1.4437,
          1.4528,
          1.462,
          1.4713,
          1.4807,
          1.4902,
          1.4997,
          1.5094,
          1.5191,
          1.529,
          1.5389,
          1.549,
          1.5591,
          1.5693,
          1.5797,
          1.5901,
          1.6007,
          1.6113,
          1.6221,
          1.633,
          1.6439,
          1.655,
          1.6662,
          1.6775,
          1.689,
          1.7005,
          1.7122,
          1.724,
          1.7359,
          1.7479,
          1.7601,
          1.7723,
          1.7848,
          1.7973,
          1.81,
          1.8228,
          1.8357,
          1.8488,
          1.862,
          1.8754,
          1.8889,
          1.9026,
          1.9164,
          1.9304,
          1.9445,
          1.9587,
          1.9732,
          1.9878,
          2.0025,
          2.0174,
          2.0325,
          2.0478,
          2.0632,
          2.0788,
          2.0945,
          2.1105,
          2.1266,
          2.143,
          2.1595,
          2.1762,
          2.1931,
          2.2102,
          2.2275,
          2.245,
          2.2627,
          2.2806,
          2.2987,
          2.3171,
          2.3357,
          2.3545,
          2.3735,
          2.3927,
          2.4122,
          2.4319,
          2.4519,
          2.4721,
          2.4926,
          2.5133,
          2.5343,
          2.5556,
          2.5771,
          2.5989,
          2.6209,
          2.6433,
          2.6659,
          2.6888,
          2.7121,
          2.7356,
          2.7594,
          2.7836,
          2.808,
          2.8328,
          2.8579,
          2.8834,
          2.9092,
          2.9353,
          2.9618,
          2.9887,
          3.0159,
          3.0435,
          3.0715,
          3.0999,
          3.1286,
          3.1578,
          3.1874,
          3.2174,
          3.2478,
          3.2786,
          3.3099,
          3.3417,
          3.3739,
          3.4065,
          3.4397,
          3.4733,
          3.5074,
          3.5421,
          3.5772,
          3.6129,
          3.6491,
          3.6859,
          3.7232,
          3.7611,
          3.7995,
          3.8386,
          3.8783,
          3.9186,
          3.9595,
          4.001,
          4.0432,
          4.0861,
          4.1297,
          4.174,
          4.219,
          4.2647,
          4.3112,
          4.3584,
          4.4064,
          4.4552,
          4.5048,
          4.5553,
          4.6066,
          4.6588,
          4.7119,
          4.7659,
          4.8208,
          4.8767,
          4.9335,
          4.9914,
          5.0503,
          5.1102,
          5.1712,
          5.2333,
          5.2965,
          5.3609,
          5.4264,
          5.4932,
          5.5612,
          5.6305,
          5.7011,
          5.773,
          5.8463,
          5.921,
          5.9971,
          6.0747,
          6.1538,
          6.2345,
          6.3168,
          6.4007,
          6.4863,
          6.5736,
          6.6627,
          6.7536,
          6.8464,
          6.9412,
          7.0379,
          7.1366,
          7.2375,
          7.3016,
          7.3275,
          7.3535,
          7.3796,
          7.4059,
          7.4324,
          7.459,
          7.4857,
          7.5126,
          7.5396,
          7.5667,
          7.594,
          7.6215,
          7.6491,
          7.6769,
          7.7048,
          7.7328,
          7.761,
          7.7894,
          7.8179,
          7.8466,
          7.8754,
          7.9044,
          7.9336,
          7.9629,
          7.9924,
          8.022,
          8.0518,
          8.0818,
          8.112,
          8.1423,
          8.1728,
          8.2034,
          8.2343,
          8.2653,
          8.2964,
          8.3278,
          8.3593,
          8.391,
          8.4229,
          8.455,
          8.4873,
          8.5197,
          8.5523,
          8.5852,
          8.6182,
          8.6514,
          8.6848,
          8.7183,
          8.7521,
          8.7861,
          8.8203,
          8.8546,
          8.8892,
          8.924,
          8.959,
          8.9942,
          9.0296,
          9.0652,
          9.101,
          9.137,
          9.1733,
          9.2097,
          9.2464,
          9.2833,
          9.3204,
          9.3578,
          9.3953,
          9.4331,
          9.4711,
          9.5094,
          9.5479,
          9.5866,
          9.6256,
          9.6647,
          9.7042,
          9.7439,
          9.7838,
          9.8239,
          9.8643,
          9.905,
          9.9459,
          9.9871,
          10.029,
          10.07,
          10.112,
          10.154,
          10.197,
          10.24,
          10.283,
          10.326,
          10.369,
          10.413,
          10.457,
          10.502,
          10.546,
          10.591,
          10.637,
          10.682,
          10.728,
          10.774,
          10.82,
          10.867,
          10.914,
          10.962,
          11.009,
          11.057,
          11.105,
          11.154,
          11.203,
          11.252,
          11.302,
          11.352,
          11.402,
          11.452,
          11.503,
          11.554,
          11.606,
          11.658,
          11.71,
          11.763,
          11.816,
          11.869,
          11.923,
          11.977,
          12.031,
          12.086,
          12.141,
          12.197,
          12.253,
          12.309,
          12.366,
          12.423,
          12.48,
          12.538,
          12.596,
          12.655,
          12.714,
          12.774,
          12.834,
          12.894,
          12.955,
          13.016,
          13.078,
          13.14,
          13.202,
          13.265,
          13.329,
          13.393,
          13.457,
          13.522,
          13.587,
          13.653,
          13.719,
          13.786,
          13.853,
          13.921,
          13.989,
          14.058,
          14.127,
          14.197,
          14.267,
          14.338,
          14.409,
          14.481,
          14.553,
          14.626,
          14.699,
          14.773,
          14.848,
          14.923,
          14.999,
          15.075,
          15.152,
          15.23,
          15.308,
          15.386,
          15.466,
          15.545,
          15.626,
          15.707,
          15.789,
          15.871,
          15.954,
          16.038,
          16.122,
          16.207,
          16.293,
          16.38,
          16.467,
          16.554,
          16.643,
          16.732,
          16.822,
          16.913,
          17.004,
          17.096,
          17.189,
          17.283,
          17.377,
          17.472,
          17.568,
          17.665,
          17.762,
          17.861,
          17.96,
          18.06,
          18.161,
          18.262,
          18.365,
          18.468,
          18.573,
          18.678,
          18.784,
          18.891,
          18.999,
          19.108,
          19.217,
          19.328,
          19.44,
          19.552,
          19.666,
          19.781,
          19.896,
          20.013,
          20.13,
          20.249,
          20.369,
          20.49,
          20.612,
          20.735,
          20.859,
          20.984,
          21.11,
          21.238,
          21.366,
          21.496,
          21.627,
          21.759,
          21.893,
          22.027,
          22.163,
          22.3,
          22.439,
          22.579,
          22.72,
          22.862,
          23.006,
          23.151,
          23.297,
          23.445,
          23.594,
          23.745,
          23.897,
          24.051,
          24.206,
          24.362,
          24.52,
          24.68,
          24.841,
          25.004,
          25.168,
          25.334,
          25.502,
          25.671,
          25.842,
          26.015,
          26.19,
          26.366,
          26.544,
          26.724,
          26.905,
          27.089,
          27.274,
          27.462,
          27.651,
          27.842,
          28.035,
          28.231,
          28.428,
          28.627,
          28.829,
          29.032,
          29.238,
          29.446,
          29.656,
          29.869,
          30.083,
          30.301,
          30.52,
          30.742,
          30.966,
          31.193,
          31.422,
          31.654,
          31.888,
          32.125,
          32.364,
          32.607,
          32.852,
          33.099,
          33.35,
          33.603,
          33.86,
          34.119,
          34.381,
          34.647,
          34.915,
          35.186,
          35.461,
          35.739,
          36.02,
          36.305,
          36.593,
          36.884,
          37.179,
          37.477,
          37.779,
          38.085,
          38.394,
          38.707,
          39.025,
          39.345,
          39.67,
          39.999,
          40.332,
          40.67,
          41.011,
          41.357,
          41.707,
          42.062,
          42.421,
          42.785,
          43.153,
          43.527,
          43.905,
          44.288,
          44.676,
          45.069,
          45.468,
          45.872,
          46.281,
          46.696,
          47.116,
          47.542,
          47.974,
          48.412,
          48.855,
          49.305,
          49.761,
          50.224,
          50.693,
          51.168,
          51.651,
          52.14,
          52.636,
          53.139,
          53.65,
          54.167,
          54.693,
          55.226,
          55.767,
          56.316,
          56.873,
          57.438,
          58.012,
          58.594,
          59.186,
          59.786,
          60.395,
          61.014,
          61.643,
          62.281,
          62.929,
          63.587,
          64.256,
          64.935,
          65.625,
          66.326,
          67.039,
          67.763,
          68.499,
          69.246,
          70.007,
          70.779,
          71.565,
          72.364,
          73.176,
          74.002,
          74.842,
          75.696,
          76.565,
          77.449,
          78.349,
          79.264,
          80.196,
          81.144,
          82.109,
          83.091,
          84.091,
          85.109,
          86.146,
          87.201,
          88.277,
          89.372,
          90.488,
          91.625,
          92.783,
          93.963,
          95.167,
          96.393,
          97.643,
          98.918,
          100.22
        ],
        [
          3271.3,
          2444.3,
          3141.7,
          3094.3,
          1963.2,
          2891.1,
          3083.3,
          3135.3,
          2369.3,
          3640.7,
          3346.5,
          2057.2,
          2801.1,
          2240.5,
          1897.2,
          2796.4,
          3143.5,
          1456.9,
          2473.4,
          2700.4,
          3217.2,
          2544.4,
          3263.3,
          2920.3,
          3213.3,
          3420.5,
          2958.5,
          4287.2,
          2736.7,
          1891.6,
          2695.8,
          2388.5,
          2814.0,
          2535.0,
          2123.7,
          2461.3,
          2656.8,
          2802.7,
          2014.9,
          2588.4,
          2945.9,
          1407.4,
          2567.8,
          3081.1,
          2453.7,
          1600.8,
          2035.9,
          1776.6,
          2304.6,
          2322.0,
          2454.1,
          2576.8,
          3010.9,
          1671.9,
          2661.8,
          1906.0,
          2679.7,
          2375.8,
          1773.7,
          2609.4,
          2615.8,
          1610.8,
          2603.5,
          2375.2,
          1886.3,
          1997.4,
          3453.8,
          1690.8,
          2252.0,
          2081.7,
          2218.2,
          2350.0,
          2202.8,
          2535.4,
          1981.7,
          2758.6,
          2567.2,
          2684.8,
          1970.5,
          2054.5,
          2526.6,
          2346.1,
          1531.5,
          1633.9,
          2315.0,
          3092.1,
          2181.3,
          2040.5,
          2145.1,
          2021.0,
          2422.2,
          2905.9,
          1586.6,
          2662.4,
          2494.3,
          2210.1,
          2600.1,
          1983.7,
          1876.4,
          1889.6,
          2911.8,
          1818.0,
          1683.0,
          1281.6,
          1661.5,
          1662.1,
          1951.8,
          2173.2,
          1560.9,
          2348.0,
          1878.5,
          1748.9,
          2103.4,
          1984.8,
          1757.5,
          2241.6,
          2063.1,
          2164.0,
          1660.9,
          2321.5,
          1738.9,
          1828.3,
          2099.3,
          2051.2,
          2082.5,
          2088.5,
          1789.8,
          2002.5,
          1910.6,
          1850.5,
          1523.2,
          1907.6,
          1466.0,
          1961.6,
          1496.1,
          1700.3,
          1578.5,
          1690.5,
          1636.0,
          2132.2,
          1571.6,
          2324.8,
          1826.7,
          1837.8,
          1820.1,
          1702.2,
          1743.2,
          1777.3,
          1651.9,
          1578.1,
          1890.0,
          1918.1,
          1562.1,
          1725.7,
          1416.1,
          1658.4,
          2038.0,
          1637.6,
          1586.4,
          1602.8,
          1680.7,
          1561.7,
          1505.7,
          2012.9,
          1833.7,
          1781.0,
          2128.5,
          1668.9,
          1513.5,
          1602.7,
          1302.5,
          1810.0,
          1780.8,
          1747.7,
          1580.1,
          1672.3,
          1785.9,
          1491.0,
          1915.8,
          1785.6,
          1547.7,
          1772.7,
          1299.1,
          1489.7,
          1619.6,
          1484.4,
          1572.1,
          1474.9,
          1556.3,
          1477.9,
          1448.8,
          1421.3,
          1546.0,
          1529.1,
          1333.1,
          1609.8,
          1664.4,
          1547.9,
          1559.0,
          1558.0,
          1326.3,
          1756.7,
          1359.6,
          1487.8,
          1498.6,
          1431.2,
          1270.2,
          1458.5,
          1588.9,
          1509.1,
          1462.1,
          1580.8,
          1730.8,
          1207.4,
          1256.1,
          1321.4,
          1372.9,
          1202.3,
          1496.7,
          1360.8,
          1479.5,
          1433.7,
          1180.8,
          1491.3,
          1599.2,
          1428.6,
          1008.8,
          1200.2,
          1539.4,
          1431.3,
          1423.6,
          1441.3,
          1329.7,
          1464.8,
          1333.1,
          962.7,
          1384.7,
          1376.4,
          1413.3,
          1412.5,
          1374.5,
          1301.0,
          1288.5,
          1220.5,
          1240.3,
          1152.3,
          1165.9,
          1148.9,
          1540.0,
          1749.4,
          1463.4,
          1389.9,
          1308.6,
          1180.3,
          1146.2,
          1225.6,
          1427.6,
          1201.5,
          1432.7,
          1416.7,
          1397.7,
          1477.1,
          1438.8,
          1183.4,
          1237.0,
          1158.3,
          1253.4,
          1204.6,
          1591.9,
          1210.2,
          1093.4,
          1268.2,
          1063.4,
          1108.6,
          1290.9,
          1247.7,
          1206.5,
          1246.9,
          1397.1,
          1286.8,
          1049.2,
          1044.9,
          1294.1,
          1133.9,
          1183.5,
          1268.0,
          1211.5,
          1291.5,
          997.12,
          1242.7,
          1131.0,
          1285.4,
          1142.7,
          1203.3,
          1223.6,
          1105.4,
          1320.1,
          1180.3,
          1068.2,
          1131.1,
          1399.2,
          1245.6,
          999.76,
          1119.9,
          1147.6,
          1082.9,
          1119.8,
          976.95,
          1245.1,
          1355.7,
          1168.1,
          952.96,
          1122.0,
          1107.6,
          1091.5,
          1005.6,
          1251.3,
          974.1,
          1125.8,
          1036.1,
          1127.1,
          1127.5,
          1048.0,
          1277.6,
          1090.3,
          1099.3,
          992.52,
          1206.1,
          1048.1,
          1042.0,
          1160.7,
          965.94,
          1090.4,
          1085.1,
          993.42,
          945.84,
          996.37,
          977.2,
          995.03,
          1112.6,
          1049.0,
          1080.4,
          1038.9,
          1101.2,
          991.74,
          1061.4,
          1078.5,
          975.39,
          1181.6,
          1062.0,
          1071.3,
          1062.9,
          923.04,
          1051.5,
          998.32,
          1030.6,
          896.52,
          1070.2,
          1013.4,
          1002.1,
          880.29,
          973.86,
          898.07,
          1033.4,
          1027.2,
          1114.9,
          1092.7,
          993.28,
          1041.2,
          893.26,
          1020.1,
          899.91,
          1049.3,
          1069.0,
          1004.3,
          971.46,
          947.65,
          985.07,
          924.96,
          969.64,
          821.75,
          916.26,
          1030.4,
          771.49,
          876.05,
          969.45,
          988.29,
          863.2,
          944.37,
          903.0,
          894.44,
          930.75,
          967.22,
          947.04,
          906.14,
          950.78,
          940.72,
          844.01,
          930.03,
          895.11,
          915.33,
          866.09,
          839.97,
          904.08,
          921.2,
          800.04,
          827.23,
          910.24,
          969.67,
          862.41,
          882.02,
          811.12,
          867.0,
          822.54,
          884.43,
          812.45,
          901.15,
          886.21,
          882.84,
          859.14,
          903.74,
          961.84,
          846.55,
          804.56,
          829.06,
          805.11,
          831.99,
          910.5,
          789.43,
          825.72,
          788.59,
          840.02,
          870.69,
          834.06,
          783.42,
          785.08,
          792.66,
          819.75,
          729.23,
          799.64,
          858.74,
          749.04,
          810.12,
          823.75,
          785.74,
          723.1,
          767.47,
          792.13,
          848.23,
          789.93,
          720.33,
          728.67,
          772.85,
          725.51,
          757.19,
          744.29,
          746.21,
          703.39,
          693.85,
          779.02,
          736.61,
          700.0,
          714.11,
          787.25,
          728.99,
          722.38,
          707.07,
          736.69,
          676.27,
          671.7,
          680.35,
          692.67,
          706.0,
          734.51,
          730.23,
          673.54,
          725.32,
          646.69,
          681.33,
          651.72,
          678.47,
          727.21,
          656.5,
          672.57,
          669.76,
          656.6,
          673.5,
          670.29,
          644.16,
          665.42,
          649.07,
          666.63,
          655.55,
          674.83,
          665.95,
          634.34,
          647.61,
          651.38,
          594.31,
          657.01,
          675.77,
          640.48,
          653.9,
          634.52,
          593.0,
          588.78,
          617.47,
          605.71,
          623.69,
          583.18,
          623.61,
          609.71,
          620.15,
          580.69,
          609.15,
          610.78,
          582.07,
          559.92,
          580.36,
          588.85,
          534.86,
          571.83,
          576.25,
          563.05,
          543.58,
          580.81,
          564.81,
          563.43,
          564.85,
          526.5,
          539.49,
          533.67,
          543.12,
          531.28,
          556.73,
          551.23,
          548.45,
          522.42,
          511.8,
          506.21,
          530.74,
          526.21,
          521.59,
          507.8,
          511.38,
          525.66,
          495.87,
          497.47,
          503.37,
          507.42,
          501.76,
          479.48,
          489.5,
          491.13,
          459.93,
          492.89,
          504.44,
          488.06,
          475.6,
          445.33,
          471.93,
          455.79,
          451.96,
          474.3,
          440.8,
          430.82,
          447.05,
          442.32,
          432.03,
          455.17,
          443.94,
          437.84,
          421.46,
          411.07,
          428.69,
          415.97,
          416.93,
          409.14,
          399.19,
          405.3,
          399.17,
          418.16,
          403.17,
          407.85,
          397.38,
          409.02,
          412.52,
          404.08,
          386.05,
          377.36,
          372.84,
          380.66,
          355.18,
          372.38,
          371.93,
          357.92,
          364.32,
          357.32,
          353.4,
          349.53,
          357.85,
          345.79,
          356.56,
          349.55,
          359.02,
          357.13,
          344.84,
          345.52,
          339.33,
          329.11,
          341.88,
          329.78,
          325.95,
          321.73,
          326.5,
          326.43,
          346.7,
          330.14,
          317.97,
          321.43,
          323.8,
          308.04,
          307.94,
          320.55,
          327.99,
          305.52,
          307.14,
          320.22,
          294.19,
          312.36,
          316.0,
          301.49,
          328.03,
          315.66,
          286.25,
          303.17,
          295.42,
          295.8,
          308.99,
          304.11,
          303.01,
          292.08,
          277.76,
          308.16,
          297.4,
          297.63,
          265.92,
          280.16,
          283.0,
          282.08,
          290.63,
          262.48,
          267.85,
          267.39,
          265.45,
          282.74,
          278.38,
          270.21,
          261.97,
          259.89,
          274.96,
          269.64,
          256.91,
          265.8,
          261.56,
          257.78,
          255.98,
          265.82,
          260.99,
          262.45,
          251.52,
          246.91,
          239.12,
          247.5,
          258.28,
          233.19,
          245.63,
          258.1,
          232.84,
          245.5,
          243.05,
          227.17,
          232.54,
          254.99,
          229.79,
          235.24,
          235.04,
          230.86,
          221.86,
          232.99,
          222.07,
          224.61,
          243.22,
          234.12,
          233.0,
          213.69,
          220.22,
          227.43,
          219.49,
          214.25,
          221.49,
          227.56,
          211.12,
          203.83,
          197.34,
          198.31,
          190.51,
          206.63,
          200.52,
          220.1,
          192.54,
          204.78,
          202.58,
          197.49,
          196.74,
          202.98,
          185.55,
          185.83,
          177.82,
          192.29,
          185.79,
          185.31,
          183.75,
          193.37,
          178.88,
          195.91,
          186.29,
          196.41,
          186.48,
          193.19,
          180.0,
          172.36,
          172.36,
          198.26,
          187.65,
          192.38,
          173.72,
          179.59,
          170.65,
          168.94,
          183.12,
          186.05,
          175.88,
          180.26,
          179.43,
          159.6,
          176.43,
          169.49,
          184.54,
          177.42,
          172.72,
          178.01,
          174.15,
          177.24,
          172.39,
          194.45,
          186.63,
          182.16,
          192.83,
          189.79,
          200.94,
          203.99,
          186.83,
          190.51,
          181.56,
          200.29,
          199.19,
          192.7,
          188.12,
          191.87,
          181.39,
          184.2,
          184.78,
          188.6,
          178.84,
          168.19,
          164.61,
          174.82,
          161.29,
          154.75,
          150.47,
          143.18,
          140.18,
          134.06,
          121.59,
          136.48,
          132.3,
          126.37,
          119.52,
          121.4,
          109.17,
          101.58,
          105.86,
          108.42,
          92.969,
          94.027,
          96.205,
          87.222,
          75.794,
          95.171,
          83.813,
          84.726,
          92.565,
          82.289,
          84.623,
          66.483,
          87.614,
          74.237,
          91.542,
          89.159,
          99.948,
          75.352,
          92.845,
          78.108,
          86.989,
          69.143,
          69.395,
          71.599,
          65.741,
          74.412,
          78.29,
          86.617,
          65.227,
          81.061,
          65.21,
          82.042,
          74.041,
          73.304,
          84.576,
          75.488,
          68.78,
          71.04,
          75.61,
          59.822,
          81.496,
          71.951,
          63.256,
          86.052,
          67.282,
          76.662,
          64.593,
          75.178,
          81.162,
          68.514,
          61.872,
          66.228,
          69.843,
          57.008,
          78.707,
          67.56,
          68.026,
          55.0,
          66.776,
          64.83,
          82.24,
          59.994,
          53.913,
          71.99,
          75.125,
          58.548,
          56.402,
          69.604,
          62.572,
          68.76,
          70.099,
          54.395,
          67.925,
          71.882,
          63.534,
          67.478,
          68.384,
          65.7,
          59.804,
          50.011,
          60.089,
          67.961,
          62.774,
          81.151,
          73.985,
          68.915,
          59.329,
          72.673,
          60.582,
          64.241,
          60.387,
          52.262,
          62.452,
          52.666,
          61.598,
          52.318,
          66.452,
          57.379,
          52.825,
          54.507,
          48.793,
          37.028,
          55.938,
          66.141,
          45.591,
          65.983,
          60.529,
          59.12,
          53.201,
          53.003,
          63.356,
          45.957,
          52.71,
          56.897,
          48.028,
          55.713,
          57.47,
          48.857,
          56.769,
          51.95,
          51.187,
          54.067,
          57.189,
          58.517,
          57.204,
          50.981,
          57.418,
          52.301,
          55.614,
          57.093,
          39.479,
          54.571,
          57.155,
          61.765,
          41.665,
          58.819,
          50.519,
          48.446,
          56.383,
          61.963,
          54.29,
          55.115,
          53.703,
          41.794,
          49.741,
          53.231,
          67.014,
          51.083,
          46.69,
          54.987,
          61.32,
          60.402,
          62.728,
          55.607,
          55.235,
          51.086,
          57.147,
          70.228,
          59.072,
          69.032,
          57.616,
          63.669,
          68.664,
          62.646,
          67.606,
          65.569,
          68.331,
          58.508,
          69.496,
          72.368,
          79.436,
          84.934,
          73.83,
          81.715,
          84.808,
          87.607,
          77.565,
          86.279,
          84.603,
          101.87,
          95.886,
          96.454,
          99.654,
          107.96,
          103.8,
          103.58,
          116.11,
          117.27,
          98.782,
          104.98,
          132.27,
          123.77,
          99.343,
          115.81,
          93.492,
          94.926,
          99.791,
          87.535,
          73.859,
          61.584,
          62.07,
          67.263,
          55.282,
          52.559,
          41.496,
          35.67,
          34.856,
          40.473,
          35.747,
          29.668,
          25.216,
          22.12,
          29.286,
          27.565,
          27.95,
          20.681,
          24.49,
          28.647,
          16.693,
          17.205,
          15.046,
          16.063,
          17.291,
          17.472,
          15.193,
          15.895,
          15.088,
          22.321,
          15.84,
          13.046,
          17.095,
          19.647,
          19.335,
          14.561,
          23.984,
          18.148,
          11.569,
          11.564,
          16.224,
          16.67,
          12.254,
          13.298,
          19.012,
          12.105,
          14.615,
          12.681,
          13.513,
          14.52,
          14.936,
          16.971,
          18.322,
          16.293,
          13.877,
          14.418,
          15.098,
          13.131,
          16.217,
          13.285,
          17.954,
          18.85,
          13.586,
          11.731,
          19.197,
          14.695,
          13.087,
          14.543,
          14.557,
          11.413,
          12.005,
          16.014,
          14.726,
          14.725,
          15.916,
          15.104,
          13.634,
          14.302,
          19.705,
          14.477,
          16.414,
          18.377,
          30.677,
          26.09,
          25.685,
          18.687,
          17.352,
          18.485,
          13.199,
          16.783,
          15.107,
          14.09,
          10.75,
          16.291,
          7.856,
          13.18,
          13.382,
          11.551,
          11.658,
          10.443,
          10.093,
          10.919,
          11.079,
          12.979,
          11.908,
          9.3592,
          7.6455,
          11.703,
          11.395,
          6.6559,
          9.7649,
          8.892,
          10.095,
          5.8287,
          7.9183,
          8.2267,
          7.9282,
          6.475,
          3.795,
          3.0475,
          10.724,
          10.001,
          13.35,
          12.987,
          19.816,
          18.582,
          20.986,
          20.885,
          19.407,
          22.091,
          21.826,
          28.697,
          29.891,
          32.293,
          41.663,
          53.54,
          52.169,
          40.929,
          40.323,
          26.221,
          24.106,
          18.095,
          19.432,
          17.315,
          23.508,
          26.821,
          31.842,
          40.972,
          53.695,
          86.363,
          91.857,
          62.363,
          36.638,
          18.477,
          8.6589,
          5.6266,
          3.5977,
          2.6057,
          2.2851,
          2.3838,
          3.7725,
          1.2638,
          4.1286,
          1.4841,
          4.3668,
          2.4952,
          3.03,
          2.9783,
          3.0672,
          3.2939,
          2.9784,
          4.3299,
          2.5911,
          5.3091,
          4.6519,
          4.4855,
          7.0509,
          21.87,
          15.139,
          6.4851,
          5.3665,
          4.3576,
          4.7191,
          7.8149,
          9.4482,
          6.9801,
          10.116,
          14.279,
          18.799,
          16.027,
          15.007,
          16.182,
          12.473,
          11.977,
          16.938,
          24.34,
          30.506,
          43.793,
          51.641,
          78.008,
          123.68,
          39.391,
          10.775,
          5.5761,
          5.7932,
          6.861,
          17.298,
          66.793,
          72.826,
          12.153,
          8.3268,
          10.038,
          9.9626,
          9.3266,
          4.0041,
          6.0875,
          8.6335,
          1.9273,
          3.4453,
          4.0996,
          3.1543,
          2.5109,
          3.2041,
          0.43157,
          1.9279,
          3.3103,
          1.8922,
          0.42797,
          2.5678,
          1.0989,
          2.5455,
          1.1881,
          3.3747,
          3.3655,
          5.3618,
          3.8642,
          2.6217,
          3.8847,
          2.5391,
          9.8993,
          6.4798,
          8.546,
          14.258,
          12.809,
          11.476,
          11.084,
          11.772,
          15.248,
          30.562,
          28.065,
          39.27,
          37.026,
          51.346,
          62.367,
          93.309,
          168.34,
          246.29,
          379.99,
          533.72,
          707.15,
          651.49,
          616.01,
          458.78,
          331.23,
          231.38,
          163.8,
          148.42,
          120.15,
          102.52,
          95.427,
          73.625,
          72.063,
          93.866,
          116.88,
          123.05,
          106.54,
          79.66,
          67.235,
          52.896,
          46.802,
          32.793,
          47.403,
          28.889,
          27.932,
          28.888,
          33.535,
          27.495,
          34.859,
          23.265,
          21.515,
          26.567,
          13.038,
          13.683,
          11.374,
          27.479,
          34.021,
          40.402,
          45.059,
          38.783,
          31.027,
          17.624,
          20.87,
          18.868,
          15.723,
          14.596,
          16.13,
          10.677,
          14.522,
          14.326,
          8.2781,
          11.613,
          12.54,
          16.196,
          13.993,
          10.685,
          15.145,
          15.625,
          13.309,
          9.1701,
          9.6511,
          8.8867,
          10.691,
          13.154,
          17.871,
          17.594,
          21.736,
          35.54,
          68.351,
          90.17,
          64.633,
          32.292,
          13.919,
          9.7958,
          17.426,
          15.414,
          22.459,
          23.091,
          25.956,
          49.241,
          94.413,
          217.99,
          343.9,
          344.85,
          222.29,
          93.251,
          39.365,
          21.379,
          24.384,
          23.316,
          34.314,
          34.598,
          18.951,
          14.056,
          15.889,
          14.877,
          24.086,
          26.481,
          25.497,
          19.331,
          22.922,
          25.072,
          30.724,
          44.776,
          61.956,
          71.424,
          62.466,
          80.731,
          91.154,
          77.353,
          76.288,
          58.217,
          54.932,
          40.411,
          35.807,
          37.876,
          40.062,
          20.457,
          11.627,
          8.8599,
          6.2521,
          7.6746,
          10.835,
          9.2882,
          16.112,
          18.16,
          46.811,
          68.56,
          57.067,
          24.56,
          11.689,
          3.4735,
          2.6872,
          8.6742,
          32.8,
          61.519,
          60.005,
          37.634,
          12.025,
          3.3774,
          12.829,
          43.638,
          75.05,
          73.223,
          31.804,
          21.221,
          12.855,
          9.4579,
          10.416,
          5.4144,
          3.6989,
          7.6669,
          6.4336,
          6.421,
          12.747,
          23.144,
          59.061,
          92.249,
          63.685,
          29.515,
          26.472,
          18.313,
          18.819,
          18.925,
          29.892,
          41.746,
          72.467,
          155.2,
          474.62,
          645.96,
          300.75,
          103.11,
          43.446,
          29.928,
          21.42,
          26.213,
          25.249,
          19.669,
          18.57,
          21.955,
          36.975,
          26.903,
          36.723,
          142.77,
          195.39,
          71.884,
          15.485,
          5.8839,
          3.3651,
          4.3823,
          1.755,
          4.9874,
          3.0888,
          4.3514,
          4.3434,
          5.5858,
          14.346,
          60.414,
          67.535,
          27.316,
          45.82,
          98.328,
          119.57,
          111.91,
          47.933,
          22.902,
          49.986,
          55.657,
          44.231,
          31.75,
          36.348,
          40.808,
          44.16,
          72.908,
          86.034,
          71.249,
          42.347,
          16.998,
          15.849,
          56.146,
          82.462,
          44.085,
          22.046,
          20.019,
          11.798,
          14.181,
          49.072,
          89.112,
          33.582,
          22.376,
          22.839,
          12.033,
          5.6638,
          5.2959,
          4.3001,
          5.8359,
          21.312,
          5.6735,
          1.5835,
          3.9687,
          19.228,
          42.219,
          25.871,
          1.6149,
          3.4083,
          10.781,
          73.654,
          167.69,
          30.85,
          6.8681,
          1.8239,
          3.7112,
          63.456,
          116.54,
          25.294,
          41.331,
          170.95,
          124.34,
          204.76,
          404.13,
          160.4,
          48.026,
          26.436,
          15.56,
          14.282,
          6.8112,
          9.814,
          10.366,
          11.741,
          17.225,
          23.426,
          10.685,
          23.701,
          149.39,
          76.365,
          25.471,
          17.525,
          31.06,
          23.437,
          36.574,
          44.379,
          44.19,
          25.437,
          10.768,
          15.14,
          29.747,
          37.626,
          39.719,
          77.139,
          36.542,
          15.548,
          13.917,
          5.2325,
          49.008,
          68.116,
          11.695,
          60.923,
          52.941,
          50.68,
          31.6,
          12.739,
          38.499,
          56.112,
          160.15,
          88.708,
          96.967,
          42.231,
          17.419,
          22.69,
          12.89,
          37.426,
          90.215,
          114.09,
          185.82,
          65.151,
          19.78,
          67.845,
          53.909,
          12.585,
          27.312,
          38.422,
          28.84,
          16.304,
          12.797,
          12.775,
          26.964,
          17.598,
          2.9,
          7.8884,
          9.0563,
          2.7568,
          1.9635,
          2.1617,
          18.42,
          40.89,
          97.236,
          14.944,
          59.307,
          10.508,
          18.347,
          59.233,
          32.101,
          5.4608,
          23.915,
          22.259,
          13.625,
          17.05,
          17.6,
          11.066,
          26.154,
          73.896,
          41.03,
          9.4128,
          13.286,
          34.357,
          29.42,
          33.959,
          36.685,
          28.2,
          13.717,
          19.48,
          17.659,
          23.037,
          11.075,
          9.456
        ],
        [
          843.49,
          708.98,
          808.37,
          726.75,
          582.43,
          740.54,
          757.51,
          789.83,
          649.49,
          835.76,
          762.72,
          659.01,
          656.26,
          651.91,
          656.77,
          685.62,
          729.55,
          523.11,
          648.09,
          647.37,
          660.26,
          582.96,
          719.4,
          721.89,
          735.79,
          731.96,
          673.62,
          868.05,
          596.84,
          519.58,
          610.9,
          599.04,
          628.11,
          573.0,
          543.15,
          555.87,
          591.88,
          615.52,
          490.91,
          600.06,
          627.63,
          472.9,
          541.99,
          660.12,
          557.03,
          469.24,
          487.54,
          432.58,
          502.45,
          537.72,
          537.9,
          519.97,
          596.58,
          407.52,
          530.85,
          429.1,
          527.11,
          470.74,
          425.01,
          556.98,
          492.57,
          394.07,
          520.74,
          444.87,
          435.72,
          436.18,
          583.58,
          406.65,
          470.1,
          425.36,
          415.12,
          429.7,
          452.52,
          454.57,
          374.45,
          492.19,
          434.19,
          427.23,
          390.5,
          408.41,
          404.87,
          409.58,
          321.37,
          344.1,
          394.75,
          467.87,
          384.69,
          367.93,
          383.19,
          355.25,
          420.81,
          438.5,
          329.65,
          410.36,
          390.11,
          373.48,
          408.48,
          341.22,
          338.73,
          336.97,
          441.64,
          297.49,
          306.81,
          261.14,
          303.04,
          291.46,
          318.07,
          342.13,
          273.3,
          345.0,
          284.74,
          297.3,
          307.02,
          308.4,
          273.93,
          301.02,
          296.13,
          292.32,
          286.12,
          297.93,
          266.3,
          275.59,
          288.07,
          285.66,
          277.29,
          282.5,
          260.33,
          276.74,
          259.21,
          267.77,
          240.06,
          257.18,
          223.86,
          246.91,
          231.25,
          235.34,
          210.86,
          225.11,
          220.91,
          263.84,
          205.6,
          274.61,
          229.81,
          231.42,
          223.21,
          210.67,
          214.77,
          216.55,
          208.51,
          201.51,
          218.15,
          219.27,
          191.72,
          197.12,
          180.18,
          193.51,
          218.23,
          190.0,
          189.35,
          180.71,
          196.75,
          187.66,
          182.92,
          203.62,
          196.5,
          184.34,
          203.79,
          180.61,
          163.68,
          170.59,
          145.06,
          183.91,
          176.95,
          174.25,
          162.16,
          168.55,
          169.43,
          155.54,
          173.75,
          167.07,
          150.98,
          162.91,
          135.4,
          145.17,
          148.63,
          143.56,
          149.65,
          140.44,
          141.66,
          136.61,
          135.34,
          128.33,
          137.96,
          135.95,
          124.6,
          133.57,
          138.9,
          133.46,
          129.23,
          131.57,
          117.63,
          134.4,
          165.93,
          171.64,
          174.04,
          166.73,
          154.52,
          167.21,
          178.19,
          167.75,
          161.34,
          168.34,
          183.79,
          142.05,
          150.02,
          155.38,
          157.09,
          143.32,
          163.95,
          153.07,
          152.65,
          152.73,
          134.86,
          157.01,
          166.84,
          153.04,
          126.02,
          136.54,
          160.29,
          151.2,
          155.81,
          153.15,
          147.31,
          152.88,
          141.72,
          119.38,
          144.76,
          148.22,
          141.35,
          144.5,
          141.71,
          134.96,
          136.24,
          127.39,
          136.43,
          126.93,
          128.53,
          123.26,
          145.35,
          158.45,
          141.56,
          138.01,
          132.35,
          120.87,
          118.89,
          120.82,
          131.71,
          118.87,
          133.27,
          131.71,
          129.35,
          137.79,
          131.04,
          113.21,
          119.17,
          112.57,
          119.43,
          115.93,
          135.41,
          115.13,
          106.02,
          119.61,
          102.56,
          109.04,
          114.93,
          110.08,
          112.23,
          114.07,
          119.42,
          114.25,
          99.612,
          101.29,
          114.62,
          105.64,
          107.68,
          111.84,
          106.56,
          108.62,
          94.174,
          104.95,
          101.61,
          109.9,
          102.04,
          107.06,
          114.36,
          107.36,
          115.84,
          109.71,
          102.31,
          105.72,
          115.14,
          113.28,
          95.486,
          99.403,
          103.89,
          96.647,
          99.455,
          91.419,
          106.62,
          110.88,
          99.008,
          92.497,
          98.417,
          94.226,
          94.328,
          88.919,
          98.788,
          85.117,
          92.45,
          88.768,
          92.598,
          93.503,
          86.269,
          96.754,
          90.013,
          88.945,
          82.27,
          92.216,
          87.741,
          83.37,
          88.575,
          79.048,
          83.777,
          85.18,
          79.805,
          73.874,
          77.43,
          75.869,
          78.206,
          81.526,
          79.496,
          77.947,
          76.583,
          78.311,
          72.927,
          76.909,
          76.129,
          70.672,
          79.025,
          74.124,
          73.717,
          72.812,
          66.11,
          74.218,
          70.882,
          70.078,
          65.704,
          69.741,
          68.043,
          67.524,
          61.158,
          64.112,
          61.289,
          66.525,
          66.36,
          68.701,
          67.141,
          64.071,
          64.448,
          58.261,
          63.517,
          58.185,
          64.17,
          63.299,
          62.963,
          59.446,
          58.603,
          58.892,
          57.04,
          58.122,
          51.887,
          54.931,
          59.343,
          48.577,
          52.412,
          55.893,
          56.072,
          51.054,
          53.523,
          53.071,
          52.631,
          52.214,
          53.361,
          52.187,
          49.805,
          51.46,
          51.296,
          46.668,
          50.431,
          48.43,
          49.604,
          47.607,
          47.203,
          48.11,
          48.843,
          44.172,
          44.728,
          46.862,
          48.664,
          45.302,
          45.031,
          42.953,
          44.081,
          41.599,
          43.55,
          41.558,
          43.971,
          43.114,
          42.994,
          41.866,
          42.589,
          44.526,
          40.266,
          38.794,
          39.765,
          38.125,
          39.13,
          40.686,
          37.438,
          37.419,
          37.111,
          38.089,
          38.396,
          38.101,
          35.264,
          34.906,
          35.494,
          35.44,
          33.267,
          35.249,
          35.682,
          32.931,
          34.661,
          35.06,
          33.486,
          31.185,
          32.23,
          32.974,
          34.023,
          32.27,
          30.832,
          30.835,
          31.766,
          30.033,
          30.702,
          30.381,
          30.289,
          29.068,
          28.568,
          30.486,
          29.216,
          27.805,
          27.853,
          29.832,
          28.192,
          27.741,
          27.161,
          27.579,
          26.22,
          25.793,
          25.79,
          25.648,
          25.954,
          26.407,
          26.085,
          24.5,
          25.561,
          23.634,
          24.092,
          23.43,
          23.875,
          24.667,
          23.067,
          23.791,
          23.533,
          22.921,
          23.285,
          23.086,
          22.367,
          22.56,
          21.899,
          22.327,
          21.895,
          21.984,
          21.57,
          20.981,
          21.111,
          21.055,
          19.997,
          21.2,
          21.394,
          20.654,
          20.866,
          20.403,
          19.599,
          19.304,
          19.583,
          19.264,
          19.318,
          18.515,
          18.999,
          18.728,
          18.688,
          17.878,
          18.22,
          18.073,
          17.406,
          16.896,
          17.1,
          17.343,
          15.966,
          16.627,
          16.486,
          16.15,
          15.777,
          16.263,
          15.844,
          15.745,
          15.654,
          14.869,
          15.055,
          14.85,
          14.783,
          14.515,
          14.719,
          14.514,
          14.431,
          13.907,
          13.66,
          13.398,
          13.715,
          13.55,
          13.4,
          13.036,
          13.032,
          13.015,
          12.574,
          12.468,
          12.483,
          12.466,
          12.272,
          11.822,
          11.945,
          11.908,
          11.37,
          11.841,
          11.86,
          11.546,
          11.373,
          10.808,
          11.235,
          10.785,
          10.795,
          10.988,
          10.455,
          10.242,
          10.424,
          10.291,
          10.124,
          10.372,
          10.169,
          9.937,
          9.6776,
          9.5325,
          9.7156,
          9.4607,
          9.3921,
          9.2939,
          9.0884,
          9.1242,
          9.0023,
          9.2176,
          8.9191,
          8.9936,
          8.7294,
          8.9057,
          8.9149,
          8.74,
          8.4615,
          8.3402,
          8.2031,
          8.2465,
          7.9048,
          8.0886,
          8.0466,
          7.8001,
          7.9192,
          7.7315,
          7.6793,
          7.5853,
          7.6167,
          7.4772,
          10.754,
          10.681,
          10.86,
          10.739,
          10.526,
          10.487,
          10.348,
          10.138,
          10.243,
          10.111,
          10.037,
          10.012,
          10.041,
          10.023,
          10.395,
          10.09,
          9.8407,
          9.8861,
          9.8962,
          9.6775,
          9.6451,
          9.891,
          10.118,
          9.6101,
          9.6307,
          9.8753,
          9.3967,
          9.7345,
          9.774,
          9.5053,
          10.032,
          9.7558,
          9.2636,
          9.5037,
          9.3822,
          9.3448,
          9.616,
          9.5473,
          9.4998,
          9.394,
          9.0909,
          9.6984,
          9.4378,
          9.5179,
          8.8503,
          9.0711,
          9.2008,
          9.1271,
          9.3052,
          8.844,
          8.8923,
          8.878,
          8.8075,
          9.2737,
          9.1116,
          8.9703,
          8.8479,
          8.8084,
          9.1703,
          9.055,
          8.7124,
          8.9279,
          8.868,
          8.805,
          8.8043,
          8.9882,
          8.8887,
          8.9192,
          8.6986,
          8.7028,
          8.5098,
          8.769,
          8.9778,
          8.383,
          8.7511,
          9.0026,
          8.4159,
          8.7471,
          8.7186,
          8.3652,
          8.5479,
          9.1232,
          8.5482,
          8.6694,
          8.6365,
          8.5524,
          8.4208,
          8.6557,
          8.4501,
          8.48,
          9.0345,
          8.845,
          8.8788,
          8.4311,
          8.611,
          8.7505,
          8.543,
          8.4995,
          8.5517,
          8.8869,
          8.4558,
          8.2319,
          8.1596,
          8.2299,
          7.9635,
          8.475,
          8.2791,
          8.8441,
          8.2087,
          8.3976,
          8.3118,
          8.3803,
          8.24,
          8.4347,
          7.9904,
          8.047,
          7.8244,
          8.2102,
          8.1084,
          8.1541,
          7.9706,
          8.3459,
          7.9142,
          8.3099,
          8.1161,
          8.5007,
          8.2611,
          8.2666,
          8.0233,
          7.7188,
          7.7864,
          8.4843,
          8.2411,
          8.2661,
          7.8009,
          8.02,
          7.6817,
          7.6102,
          8.0174,
          8.0285,
          7.8215,
          7.9423,
          7.8227,
          7.4393,
          7.8495,
          7.6253,
          7.9166,
          7.86,
          7.6088,
          7.8009,
          7.7,
          7.682,
          7.5615,
          8.0459,
          7.9375,
          7.7449,
          8.0449,
          7.9064,
          8.079,
          8.1237,
          7.734,
          7.8498,
          7.5077,
          8.0587,
          7.9006,
          7.6572,
          7.5263,
          7.662,
          7.4047,
          7.4141,
          7.4655,
          7.519,
          7.2195,
          6.9496,
          6.84,
          7.0764,
          6.7128,
          6.5277,
          6.3931,
          6.1415,
          6.087,
          5.9143,
          5.5278,
          5.9582,
          5.7792,
          5.5743,
          5.4983,
          5.4588,
          5.0606,
          4.8815,
          5.0277,
          5.1192,
          4.6313,
          4.5972,
          4.6995,
          4.4341,
          4.1231,
          4.632,
          4.2489,
          4.2624,
          10.118,
          9.444,
          9.6037,
          8.4046,
          9.5587,
          8.8888,
          10.007,
          9.9051,
          10.401,
          8.9086,
          9.8854,
          9.0682,
          9.8915,
          8.5005,
          8.412,
          8.5689,
          8.1905,
          8.7409,
          8.9251,
          9.8535,
          8.2508,
          9.0885,
          8.1871,
          9.2595,
          8.8172,
          8.6686,
          9.3912,
          8.764,
          8.2281,
          8.6888,
          8.7806,
          7.7965,
          9.0401,
          8.3966,
          7.9404,
          9.2515,
          8.3382,
          9.0288,
          8.1782,
          8.9078,
          8.9557,
          8.2597,
          7.8863,
          8.0896,
          8.2026,
          7.3663,
          8.7805,
          8.202,
          8.1472,
          7.28,
          7.8863,
          7.8621,
          9.0376,
          7.5868,
          7.1958,
          8.3623,
          8.4735,
          7.3443,
          7.2342,
          8.1303,
          7.6387,
          8.0822,
          8.0876,
          7.0853,
          8.0356,
          8.2511,
          7.655,
          8.0367,
          8.0944,
          7.8188,
          7.5137,
          6.8486,
          7.3327,
          7.8895,
          7.6181,
          8.5516,
          8.2074,
          8.007,
          7.3461,
          8.1538,
          7.2958,
          7.5452,
          7.3237,
          6.8093,
          7.531,
          6.8643,
          7.3246,
          6.7634,
          7.8191,
          7.1034,
          6.778,
          6.8923,
          6.3494,
          5.6378,
          6.8719,
          7.5417,
          6.2966,
          7.6192,
          7.1524,
          7.0281,
          6.6756,
          6.7016,
          7.3083,
          6.1817,
          6.6141,
          6.8519,
          6.3053,
          6.8012,
          6.8304,
          6.2636,
          6.8388,
          6.4226,
          6.5211,
          6.5972,
          6.8933,
          6.9166,
          6.7568,
          6.4965,
          6.9243,
          6.3782,
          6.5217,
          6.7016,
          5.5465,
          6.6189,
          6.8476,
          7.0882,
          5.8071,
          6.7821,
          6.2489,
          6.03,
          6.6647,
          6.944,
          6.4536,
          6.5117,
          6.4263,
          5.5719,
          6.1538,
          6.4591,
          7.2028,
          6.1913,
          5.9924,
          6.5894,
          6.9605,
          6.853,
          7.0008,
          6.5355,
          6.4486,
          6.1103,
          6.4737,
          7.4128,
          6.7013,
          7.1713,
          6.4529,
          6.8401,
          7.0982,
          6.8789,
          7.1676,
          6.9434,
          6.9959,
          6.4469,
          7.0532,
          7.2892,
          7.5541,
          7.818,
          7.2437,
          7.6279,
          7.8092,
          8.0206,
          7.4043,
          7.9869,
          8.0148,
          8.7134,
          8.3088,
          8.2789,
          8.5727,
          8.9056,
          8.5414,
          8.6553,
          9.1248,
          9.1509,
          8.2077,
          8.4758,
          10.009,
          9.6809,
          8.3943,
          9.1134,
          8.0811,
          8.1871,
          8.4956,
          7.864,
          6.9968,
          6.3335,
          6.3864,
          6.7489,
          5.9992,
          5.8588,
          5.1712,
          4.7186,
          4.6889,
          5.0797,
          4.771,
          4.381,
          3.975,
          3.6145,
          4.1922,
          4.1096,
          4.1238,
          3.5704,
          3.9084,
          4.2758,
          3.2256,
          3.2093,
          2.9596,
          3.1031,
          3.2261,
          3.2055,
          3.0486,
          3.0709,
          2.9689,
          3.5591,
          3.0055,
          2.7866,
          3.1368,
          3.3928,
          3.3887,
          2.922,
          3.6946,
          3.1782,
          2.5895,
          2.5886,
          2.9765,
          3.0596,
          2.6792,
          2.7808,
          3.2838,
          2.5859,
          2.773,
          2.5951,
          2.7675,
          2.8059,
          2.8353,
          3.0182,
          3.1188,
          2.9428,
          2.681,
          2.7366,
          2.8174,
          2.6354,
          2.8836,
          2.6152,
          3.0139,
          3.0821,
          2.6254,
          2.4528,
          3.0997,
          2.6964,
          2.5767,
          2.7144,
          2.7655,
          2.4401,
          2.4587,
          2.8057,
          2.7035,
          2.7035,
          2.7888,
          2.6447,
          2.5442,
          2.6255,
          3.0341,
          2.6151,
          2.7947,
          2.9314,
          3.7914,
          3.4485,
          3.4843,
          2.9105,
          2.8018,
          2.8788,
          2.4225,
          2.7817,
          2.6481,
          2.5464,
          2.3002,
          2.6998,
          1.9068,
          2.42,
          2.4175,
          2.2329,
          2.2131,
          2.1395,
          2.1594,
          2.2383,
          2.2256,
          2.3449,
          2.2227,
          2.0016,
          1.8046,
          2.2642,
          2.2039,
          1.7186,
          2.0007,
          1.9015,
          2.0274,
          1.5564,
          1.7746,
          1.7999,
          1.777,
          1.6198,
          1.3268,
          1.2165,
          2.0745,
          1.9702,
          2.2414,
          2.2109,
          2.7327,
          2.634,
          2.7489,
          2.713,
          2.6278,
          2.828,
          2.8629,
          3.2037,
          3.2281,
          3.4039,
          3.9154,
          4.4937,
          4.305,
          3.7993,
          3.7716,
          2.9951,
          2.8568,
          2.4721,
          2.5671,
          2.4085,
          2.7668,
          2.9421,
          3.2448,
          3.6816,
          4.2369,
          5.5734,
          5.6954,
          4.5497,
          3.4229,
          2.4415,
          1.6449,
          1.3678,
          1.1334,
          0.97166,
          0.91449,
          0.95419,
          1.1351,
          0.77998,
          1.1911,
          0.79458,
          1.168,
          0.93094,
          1.0044,
          0.98723,
          1.0169,
          1.0382,
          0.98749,
          1.1587,
          0.9085,
          1.2218,
          1.1656,
          1.1605,
          1.4175,
          2.4395,
          1.998,
          1.303,
          1.2043,
          1.0919,
          1.1156,
          1.4121,
          1.5445,
          1.3262,
          1.5935,
          1.853,
          2.1571,
          1.975,
          1.8606,
          1.9524,
          1.7174,
          1.6636,
          1.978,
          2.3665,
          2.6592,
          3.2111,
          3.5184,
          4.5968,
          5.9528,
          2.983,
          1.5094,
          1.0983,
          1.1201,
          1.2011,
          1.892,
          3.9439,
          4.1556,
          1.5891,
          2.6539,
          2.9271,
          2.9049,
          2.7165,
          1.7964,
          2.3138,
          2.6244,
          1.3534,
          1.727,
          1.8397,
          1.5804,
          1.4497,
          1.6056,
          0.84519,
          1.3541,
          1.6592,
          1.329,
          0.83843,
          1.4831,
          1.0537,
          1.4704,
          1.1395,
          1.6922,
          1.6875,
          2.0363,
          1.7337,
          1.514,
          1.7428,
          1.466,
          2.6721,
          2.1718,
          2.487,
          3.3272,
          3.1527,
          3.001,
          2.8964,
          2.982,
          3.3907,
          4.9364,
          4.5677,
          5.629,
          5.3355,
          6.3931,
          7.1505,
          9.2197,
          14.112,
          18.163,
          26.002,
          34.604,
          43.479,
          39.227,
          37.45,
          29.14,
          22.114,
          16.679,
          13.057,
          12.343,
          10.82,
          9.7926,
          9.1722,
          7.7602,
          7.8201,
          9.2628,
          10.499,
          10.801,
          9.7906,
          7.9857,
          7.1488,
          6.4259,
          5.9257,
          4.9408,
          6.228,
          4.6136,
          4.3525,
          4.4609,
          4.8675,
          4.4869,
          5.0739,
          3.8613,
          3.7045,
          4.2773,
          2.8932,
          2.97,
          2.7182,
          4.4337,
          4.9024,
          5.3306,
          5.7827,
          5.1813,
          4.5309,
          3.3575,
          3.6956,
          3.4304,
          3.1523,
          3.1053,
          3.3016,
          2.623,
          3.0243,
          2.9218,
          2.1553,
          2.6347,
          2.7819,
          3.1918,
          3.0427,
          2.5523,
          3.0969,
          3.1365,
          2.8276,
          2.3179,
          2.3688,
          2.2452,
          2.4872,
          2.795,
          3.3023,
          3.3035,
          3.7068,
          4.8173,
          7.1527,
          8.6971,
          6.779,
          4.4983,
          2.8429,
          2.4069,
          3.2733,
          3.0395,
          3.6477,
          3.7109,
          3.8084,
          5.6134,
          8.6481,
          15.509,
          21.09,
          21.414,
          15.907,
          8.2995,
          4.9056,
          3.6031,
          3.8444,
          3.6676,
          4.5835,
          4.4865,
          3.2652,
          2.8199,
          2.9307,
          2.8815,
          3.7985,
          3.8621,
          3.7846,
          3.2469,
          3.6072,
          3.7573,
          4.2497,
          5.2886,
          6.3126,
          6.8097,
          6.2989,
          7.3102,
          7.8539,
          6.9241,
          6.9406,
          6.0479,
          5.9269,
          4.8237,
          4.4516,
          4.4974,
          4.7246,
          3.1714,
          2.4189,
          2.116,
          1.748,
          1.9395,
          2.4071,
          2.1617,
          2.7669,
          3.0115,
          5.1285,
          6.4847,
          5.8001,
          3.6189,
          2.3855,
          1.319,
          1.2069,
          2.1333,
          4.1515,
          5.9112,
          5.811,
          4.4628,
          2.4099,
          1.2824,
          2.4392,
          4.8872,
          6.7152,
          6.6066,
          4.0521,
          3.2041,
          2.4456,
          2.0974,
          2.2124,
          1.5748,
          1.3144,
          1.9408,
          1.7364,
          1.7331,
          2.4697,
          3.3477,
          5.6875,
          7.6299,
          6.0939,
          3.6997,
          3.4901,
          2.9069,
          2.9243,
          2.9421,
          3.8073,
          4.5479,
          6.443,
          10.741,
          27.053,
          35.36,
          18.04,
          7.9818,
          4.6733,
          3.6679,
          3.0099,
          3.4912,
          3.4085,
          3.0044,
          2.859,
          3.0924,
          4.1405,
          3.412,
          4.1335,
          10.143,
          12.746,
          6.2652,
          2.5699,
          1.5344,
          1.1273,
          1.2734,
          0.88096,
          1.3945,
          1.0975,
          1.2647,
          1.2624,
          1.4563,
          2.3765,
          5.5567,
          5.8049,
          3.2611,
          4.4901,
          7.5382,
          8.7763,
          8.3174,
          4.7666,
          3.018,
          4.689,
          5.051,
          4.4306,
          3.7141,
          3.8849,
          4.1031,
          4.2489,
          6.0442,
          6.9458,
          5.8627,
          4.1208,
          2.4656,
          2.3603,
          5.1307,
          6.6851,
          4.3521,
          2.8648,
          2.6877,
          1.998,
          2.2452,
          4.5861,
          6.8013,
          3.5991,
          2.8729,
          2.9162,
          1.988,
          1.3897,
          1.3381,
          1.1582,
          1.3923,
          2.814,
          1.3165,
          0.71078,
          1.1083,
          2.5231,
          3.9468,
          2.9666,
          0.72495,
          1.0337,
          1.8236,
          5.7408,
          10.557,
          3.3003,
          1.4878,
          0.74733,
          1.0359,
          5.3565,
          8.0417,
          2.922,
          3.8394,
          10.835,
          8.4127,
          12.194,
          21.817,
          10.075,
          4.2419,
          2.8976,
          2.1261,
          2.0898,
          1.4139,
          1.7056,
          1.7326,
          1.8128,
          2.277,
          2.6718,
          1.7016,
          2.6214,
          9.2485,
          5.6774,
          2.8685,
          2.2704,
          3.1738,
          2.6509,
          3.3404,
          3.7204,
          3.8355,
          2.6917,
          1.6244,
          2.0579,
          2.9865,
          3.3057,
          3.4564,
          5.5169,
          3.3446,
          1.9915,
          1.8701,
          1.1055,
          3.8651,
          5.0465,
          1.7229,
          4.5938,
          4.2091,
          4.0558,
          3.0421,
          1.754,
          3.3154,
          4.2971,
          9.6836,
          6.0709,
          6.2255,
          3.4629,
          2.0405,
          2.3657,
          1.7109,
          3.1332,
          5.8955,
          7.198,
          10.596,
          4.5372,
          2.0935,
          4.6301,
          3.9991,
          1.6625,
          2.6057,
          3.1626,
          2.5782,
          1.8835,
          1.6706,
          1.6199,
          2.5016,
          1.9122,
          0.73517,
          1.2342,
          1.3115,
          0.72218,
          0.62902,
          0.66075,
          1.9988,
          3.1936,
          5.9797,
          1.7099,
          3.9891,
          1.3663,
          1.9069,
          4.0546,
          2.6872,
          0.9653,
          2.2518,
          2.1177,
          1.5749,
          1.7855,
          1.7782,
          1.3797,
          2.2583,
          4.6032,
          3.0387,
          1.235,
          1.4983,
          2.6859,
          2.396,
          2.6789,
          2.8551,
          2.3898,
          1.5484,
          1.9,
          1.7969,
          2.0659,
          1.3225,
          1.1786
        ]
      ]
    }
  },
  "12905-003": {
    "reaction": {
      "0": {
        "x4_code": "(94-PU-239(N,F),,SIG)",
        "0": {
          "code": [
            "94-PU-239",
            [
              "N,F"
            ],
            ",,SIG"
          ],
          "type": null,
          "target": "94-PU-239",
          "process": "N,F",
          "sf49": ",,SIG",
          "sf4": null,
          "sf5": null,
          "sf6": "SIG",
          "sf7": null,
          "sf8": null,
          "sf9": null
        },
        "type": null,
        "free_text": ""
      }
    },
    "extra_information": {
      "monitor": {
        "0": [
          {
            "x4_code": "((MONIT)94-PU-239(N,F),,INT)",
            "free_txt": []
          }
        ]
      },
      "sample": {
        "0": [
          {
            "x4_code": null,
            "free_txt": [
              "ISOTOPIC COMPOSITION OF SAMPLE WAS",
              "  PU-239    99.928 PERCENT",
              "  PU-240      .021  PERCENT",
              "  PU-241      .001 PERCENT",
              "SAMPLE WAS COATED 1 TO 1.4 G/M**2 AND 7.6 CM DIAMETER",
              "  ON ALUMINUM DISKS 10 CM DIAMETER AND 0.001 CM THICK."
            ]
          }
        ]
      }
    },
    "common": {
      "heads": [
        "EN-NRM-MIN",
        "EN-NRM-MAX",
        "MONIT"
      ],
      "units": [
        "EV",
        "EV",
        "B*EV"
      ],
      "data": [
        [
          0.02001
        ],
        [
          0.06001
        ],
        [
          25.15
        ]
      ]
    },
    "data": {
      "heads": [
        "EN",
        "DATA",
        "ERR-S"
      ],
      "units": [
        "EV",
        "B",
        "B"
      ],
      "data": [
        [
          0.001594,
          0.0016007,
          0.0016074,
          0.0016142,
          0.001621,
          0.0016278,
          0.0016347,
          0.0016417,
          0.0016487,
          0.0016557,
          0.0016628,
          0.0016699,
          0.0016771,
          0.0016843,
          0.0016915,
          0.0016988,
          0.0017062,
          0.0017136,
          0.001721,
          0.0017285,
          0.0017361,
          0.0017437,
          0.0017513,
          0.001759,
          0.0017668,
          0.0017746,
          0.0017824,
          0.0017903,
          0.0017983,
          0.0018063,
          0.0018143,
          0.0018225,
          0.0018306,
          0.0018389,
          0.0018471,
          0.0018555,
          0.0018639,
          0.0018723,
          0.0018808,
          0.0018894,
          0.001898,
          0.0019067,
          0.0019155,
          0.0019243,
          0.0019331,
          0.0019421,
          0.001951,
          0.0019601,
          0.0019692,
          0.0019784,
          0.0019876,
          0.0019969,
          0.0020063,
          0.0020158,
          0.0020253,
          0.0020348,
          0.0020445,
          0.0020542,
          0.002064,
          0.0020738,
          0.0020837,
          0.0020937,
          0.0021038,
          0.0021139,
          0.0021241,
          0.0021344,
          0.0021448,
          0.0021552,
          0.0021657,
          0.0021763,
          0.002187,
          0.0021977,
          0.0022086,
          0.0022195,
          0.0022304,
          0.0022415,
          0.0022527,
          0.0022639,
          0.0022752,
          0.0022866,
          0.0022981,
          0.0023097,
          0.0023213,
          0.0023331,
          0.0023449,
          0.0023569,
          0.0023689,
          0.002381,
          0.0023932,
          0.0024055,
          0.0024179,
          0.0024304,
          0.002443,
          0.0024557,
          0.0024685,
          0.0024814,
          0.0024943,
          0.0025074,
          0.0025206,
          0.0025339,
          0.0025473,
          0.0025608,
          0.0025745,
          0.0025882,
          0.002602,
          0.002616,
          0.00263,
          0.0026442,
          0.0026585,
          0.0026729,
          0.0026874,
          0.0027021,
          0.0027168,
          0.0027317,
          0.0027467,
          0.0027619,
          0.0027771,
          0.0027925,
          0.002808,
          0.0028237,
          0.0028394,
          0.0028553,
          0.0028714,
          0.0028875,
          0.0029038,
          0.0029203,
          0.0029369,
          0.0029536,
          0.0029705,
          0.0029875,
          0.0030047,
          0.003022,
          0.0030395,
          0.0030571,
          0.0030748,
          0.0030928,
          0.0031108,
          0.0031291,
          0.0031475,
          0.0031661,
          0.0031848,
          0.0032037,
          0.0032227,
          0.003242,
          0.0032614,
          0.003281,
          0.0033007,
          0.0033207,
          0.0033408,
          0.0033611,
          0.0033816,
          0.0034023,
          0.0034231,
          0.0034442,
          0.0034654,
          0.0034869,
          0.0035086,
          0.0035304,
          0.0035525,
          0.0035747,
          0.0035972,
          0.0036199,
          0.0036428,
          0.0036659,
          0.0036893,
          0.0037128,
          0.0037366,
          0.0037607,
          0.0037849,
          0.0038094,
          0.0038341,
          0.0038591,
          0.0038843,
          0.0039098,
          0.0039355,
          0.0039615,
          0.0039877,
          0.0040142,
          0.0040409,
          0.004068,
          0.0040953,
          0.0041228,
          0.0041507,
          0.0041788,
          0.0042072,
          0.0042359,
          0.004265,
          0.0042943,
          0.0043239,
          0.0043538,
          0.004384,
          0.0044145,
          0.0044454,
          0.0044766,
          0.0045081,
          0.00454,
          0.0045722,
          0.0046047,
          0.0046376,
          0.0046708,
          0.0047044,
          0.0047384,
          0.0047641,
          0.0047813,
          0.0047987,
          0.0048161,
          0.0048337,
          0.0048513,
          0.004869,
          0.0048869,
          0.0049048,
          0.0049228,
          0.0049409,
          0.0049592,
          0.0049775,
          0.0049959,
          0.0050145,
          0.0050331,
          0.0050518,
          0.0050707,
          0.0050896,
          0.0051087,
          0.0051278,
          0.0051471,
          0.0051665,
          0.005186,
          0.0052056,
          0.0052253,
          0.0052451,
          0.0052651,
          0.0052851,
          0.0053053,
          0.0053256,
          0.005346,
          0.0053665,
          0.0053871,
          0.0054079,
          0.0054287,
          0.0054497,
          0.0054708,
          0.0054921,
          0.0055135,
          0.0055349,
          0.0055566,
          0.0055783,
          0.0056002,
          0.0056222,
          0.0056443,
          0.0056665,
          0.0056889,
          0.0057115,
          0.0057341,
          0.0057569,
          0.0057798,
          0.0058029,
          0.0058261,
          0.0058495,
          0.0058729,
          0.0058966,
          0.0059203,
          0.0059442,
          0.0059683,
          0.0059925,
          0.0060169,
          0.0060414,
          0.006066,
          0.0060908,
          0.0061158,
          0.0061409,
          0.0061661,
          0.0061916,
          0.0062171,
          0.0062429,
          0.0062688,
          0.0062948,
          0.006321,
          0.0063474,
          0.006374,
          0.0064007,
          0.0064276,
          0.0064546,
          0.0064819,
          0.0065093,
          0.0065368,
          0.0065646,
          0.0065925,
          0.0066206,
          0.0066489,
          0.0066774,
          0.006706,
          0.0067348,
          0.0067639,
          0.0067931,
          0.0068225,
          0.0068521,
          0.0068818,
          0.0069118,
          0.006942,
          0.0069724,
          0.0070029,
          0.0070337,
          0.0070647,
          0.0070959,
          0.0071272,
          0.0071588,
          0.0071906,
          0.0072227,
          0.0072549,
          0.0072873,
          0.00732,
          0.0073529,
          0.007386,
          0.0074193,
          0.0074529,
          0.0074867,
          0.0075207,
          0.007555,
          0.0075894,
          0.0076242,
          0.0076591,
          0.0076943,
          0.0077298,
          0.0077655,
          0.0078014,
          0.0078376,
          0.007874,
          0.0079107,
          0.0079477,
          0.0079849,
          0.0080224,
          0.0080601,
          0.0080981,
          0.0081364,
          0.0081749,
          0.0082138,
          0.0082528,
          0.0082922,
          0.0083319,
          0.0083718,
          0.0084121,
          0.0084526,
          0.0084934,
          0.0085345,
          0.0085759,
          0.0086177,
          0.0086597,
          0.008702,
          0.0087446,
          0.0087876,
          0.0088309,
          0.0088745,
          0.0089184,
          0.0089626,
          0.0090072,
          0.0090521,
          0.0090973,
          0.0091429,
          0.0091889,
          0.0092351,
          0.0092818,
          0.0093287,
          0.0093761,
          0.0094238,
          0.0094718,
          0.0095203,
          0.0095691,
          0.0096182,
          0.0096678,
          0.0097177,
          0.0097681,
          0.0098188,
          0.0098699,
          0.0099214,
          0.0099734,
          0.010026,
          0.010078,
          0.010132,
          0.010185,
          0.010239,
          0.010294,
          0.010349,
          0.010404,
          0.01046,
          0.010516,
          0.010572,
          0.01063,
          0.010687,
          0.010745,
          0.010804,
          0.010863,
          0.010922,
          0.010982,
          0.011043,
          0.011104,
          0.011165,
          0.011227,
          0.01129,
          0.011353,
          0.011416,
          0.01148,
          0.011545,
          0.01161,
          0.011676,
          0.011742,
          0.011809,
          0.011877,
          0.011945,
          0.012013,
          0.012083,
          0.012152,
          0.012223,
          0.012294,
          0.012365,
          0.012438,
          0.012511,
          0.012584,
          0.012658,
          0.012733,
          0.012809,
          0.012885,
          0.012962,
          0.01304,
          0.013118,
          0.013197,
          0.013276,
          0.013357,
          0.013438,
          0.01352,
          0.013603,
          0.013686,
          0.01377,
          0.013855,
          0.013941,
          0.014027,
          0.014115,
          0.014203,
          0.014292,
          0.014382,
          0.014473,
          0.014564,
          0.014657,
          0.01475,
          0.014844,
          0.014939,
          0.015035,
          0.015132,
          0.01523,
          0.015329,
          0.015429,
          0.015529,
          0.015631,
          0.015734,
          0.015838,
          0.015943,
          0.016049,
          0.016155,
          0.016263,
          0.016373,
          0.016483,
          0.016594,
          0.016707,
          0.01682,
          0.016935,
          0.017051,
          0.017168,
          0.017286,
          0.017406,
          0.017527,
          0.017649,
          0.017772,
          0.017897,
          0.018023,
          0.01815,
          0.018279,
          0.018409,
          0.01854,
          0.018673,
          0.018807,
          0.018943,
          0.01908,
          0.019219,
          0.019359,
          0.019501,
          0.019644,
          0.019789,
          0.019935,
          0.020083,
          0.020233,
          0.020385,
          0.020538,
          0.020693,
          0.02085,
          0.021008,
          0.021168,
          0.02133,
          0.021494,
          0.02166,
          0.021828,
          0.021998,
          0.02217,
          0.022343,
          0.022519,
          0.022697,
          0.022877,
          0.023059,
          0.023244,
          0.02343,
          0.023619,
          0.02381,
          0.024004,
          0.024199,
          0.024398,
          0.024598,
          0.024801,
          0.025007,
          0.025215,
          0.025426,
          0.02564,
          0.025856,
          0.026075,
          0.026297,
          0.026521,
          0.026749,
          0.026979,
          0.027213,
          0.027449,
          0.027689,
          0.027932,
          0.028177,
          0.028427,
          0.028679,
          0.028935,
          0.029194,
          0.029457,
          0.029724,
          0.029994,
          0.030267,
          0.030545,
          0.030826,
          0.031111,
          0.031401,
          0.031694,
          0.031991,
          0.032293,
          0.032599,
          0.032909,
          0.033224,
          0.033543,
          0.033867,
          0.034195,
          0.034528,
          0.034867,
          0.03521,
          0.035558,
          0.035912,
          0.036271,
          0.036635,
          0.037005,
          0.03738,
          0.037761,
          0.038148,
          0.038541,
          0.03894,
          0.039346,
          0.039757,
          0.040175,
          0.0406,
          0.041032,
          0.04147,
          0.041916,
          0.042368,
          0.042829,
          0.043296,
          0.043772,
          0.044255,
          0.044746,
          0.045246,
          0.045754,
          0.04627,
          0.046796,
          0.04733,
          0.047873,
          0.048426,
          0.048989,
          0.049561,
          0.050144,
          0.050737,
          0.05134,
          0.051955,
          0.05258,
          0.053217,
          0.053865,
          0.054525,
          0.055198,
          0.055883,
          0.056581,
          0.057292,
          0.058016,
          0.058754,
          0.059507,
          0.060274,
          0.061056,
          0.061653,
          0.062055,
          0.062462,
          0.062872,
          0.063287,
          0.063705,
          0.064128,
          0.064555,
          0.064987,
          0.065422,
          0.065862,
          0.066307,
          0.066756,
          0.06721,
          0.067668,
          0.068131,
          0.068599,
          0.069071,
          0.069549,
          0.070031,
          0.070519,
          0.071011,
          0.071509,
          0.072012,
          0.072521,
          0.073034,
          0.073554,
          0.074078,
          0.074609,
          0.075145,
          0.075687,
          0.076235,
          0.076789,
          0.077348,
          0.077914,
          0.078487,
          0.079065,
          0.07965,
          0.080242,
          0.08084,
          0.081445,
          0.082056,
          0.082675,
          0.083301,
          0.083933,
          0.084573,
          0.085221,
          0.085875,
          0.086538,
          0.087208,
          0.087886,
          0.088571,
          0.089265,
          0.089967,
          0.090677,
          0.091396,
          0.092124,
          0.09286,
          0.093605,
          0.094359,
          0.095122,
          0.095894,
          0.096676,
          0.097467,
          0.098268,
          0.099079,
          0.099901,
          0.10073,
          0.10157,
          0.10243,
          0.10329,
          0.10416,
          0.10505,
          0.10595,
          0.10685,
          0.10777,
          0.10871,
          0.10965,
          0.11061,
          0.11157,
          0.11256,
          0.11355,
          0.11456,
          0.11558,
          0.11662,
          0.11767,
          0.11873,
          0.11981,
          0.1209,
          0.12201,
          0.12313,
          0.12427,
          0.12542,
          0.12659,
          0.12778,
          0.12898,
          0.1302,
          0.13144,
          0.1327,
          0.13397,
          0.13526,
          0.13658,
          0.13791,
          0.13926,
          0.14063,
          0.14202,
          0.14343,
          0.14486,
          0.14631,
          0.14779,
          0.14929,
          0.15081,
          0.15235,
          0.15392,
          0.15551,
          0.15713,
          0.15877,
          0.16044,
          0.16214,
          0.16386,
          0.16561,
          0.16739,
          0.16919,
          0.17103,
          0.17289,
          0.17479,
          0.17672,
          0.17868,
          0.18067,
          0.1827,
          0.18476,
          0.18685,
          0.18899,
          0.19115,
          0.19336,
          0.1956,
          0.19789,
          0.20021,
          0.20258,
          0.20498,
          0.20743,
          0.20993,
          0.21247,
          0.21506,
          0.21769,
          0.22037,
          0.2231,
          0.22589,
          0.22872,
          0.23161,
          0.23456,
          0.23756,
          0.24062,
          0.24374,
          0.24692,
          0.25016,
          0.25346,
          0.25684,
          0.26028,
          0.26379,
          0.26737,
          0.27102,
          0.27475,
          0.27856,
          0.28245,
          0.28642,
          0.29047,
          0.29461,
          0.29884,
          0.30316,
          0.30758,
          0.31209,
          0.3167,
          0.32142,
          0.32624,
          0.33117,
          0.33622,
          0.34138,
          0.34666,
          0.35206,
          0.35759,
          0.36325,
          0.36905,
          0.37499,
          0.38107,
          0.3873,
          0.39369,
          0.40023,
          0.40694,
          0.41382,
          0.42088,
          0.42811,
          0.43554,
          0.44316,
          0.45098,
          0.45901,
          0.46726,
          0.47573,
          0.48443,
          0.49338,
          0.49887,
          0.50072,
          0.50258,
          0.50445,
          0.50633,
          0.50822,
          0.51012,
          0.51203,
          0.51395,
          0.51589,
          0.51783,
          0.51979,
          0.52175,
          0.52373,
          0.52572,
          0.52772,
          0.52973,
          0.53176,
          0.53379,
          0.53584,
          0.5379,
          0.53997,
          0.54205,
          0.54415,
          0.54625,
          0.54837,
          0.5505,
          0.55265,
          0.5548,
          0.55697,
          0.55916,
          0.56135,
          0.56356,
          0.56578,
          0.56801,
          0.57026,
          0.57252,
          0.57479,
          0.57708,
          0.57938,
          0.5817,
          0.58403,
          0.58637,
          0.58873,
          0.5911,
          0.59348,
          0.59588,
          0.5983,
          0.60073,
          0.60317,
          0.60563,
          0.60811,
          0.61059,
          0.6131,
          0.61562,
          0.61816,
          0.62071,
          0.62327,
          0.62586,
          0.62846,
          0.63107,
          0.6337,
          0.63635,
          0.63902,
          0.6417,
          0.6444,
          0.64711,
          0.64985,
          0.6526,
          0.65537,
          0.65815,
          0.66095,
          0.66378,
          0.66662,
          0.66947,
          0.67235,
          0.67524,
          0.67816,
          0.68109,
          0.68404,
          0.68701,
          0.69,
          0.69301,
          0.69604,
          0.69909,
          0.70216,
          0.70525,
          0.70836,
          0.71149,
          0.71464,
          0.71781,
          0.72101,
          0.72422,
          0.72746,
          0.73071,
          0.73399,
          0.7373,
          0.74062,
          0.74397,
          0.74734,
          0.75073,
          0.75415,
          0.75759,
          0.76105,
          0.76454,
          0.76805,
          0.77158,
          0.77514,
          0.77872,
          0.78233,
          0.78597,
          0.78963,
          0.79331,
          0.79702,
          0.80076,
          0.80452,
          0.80831,
          0.81213,
          0.81597,
          0.81985,
          0.82375,
          0.82767,
          0.83163,
          0.83561,
          0.83962,
          0.84366,
          0.84773,
          0.85183,
          0.85596,
          0.86012,
          0.86431,
          0.86853,
          0.87279,
          0.87707,
          0.88138,
          0.88573,
          0.89011,
          0.89452,
          0.89896,
          0.90344,
          0.90795,
          0.9125,
          0.91708,
          0.92169,
          0.92634,
          0.93102,
          0.93574,
          0.9405,
          0.94529,
          0.95012,
          0.95498,
          0.95989,
          0.96483,
          0.96981,
          0.97482,
          0.97988,
          0.98498,
          0.99011,
          0.99529,
          1.0005,
          1.0058,
          1.0111,
          1.0164,
          1.0218,
          1.0272,
          1.0327,
          1.0382,
          1.0438,
          1.0494,
          1.055,
          1.0607,
          1.0664,
          1.0722,
          1.0781,
          1.084,
          1.0899,
          1.0959,
          1.1019,
          1.108,
          1.1141,
          1.1203,
          1.1265,
          1.1328,
          1.1391,
          1.1455,
          1.152,
          1.1585,
          1.165,
          1.1716,
          1.1783,
          1.185,
          1.1918,
          1.1986,
          1.2055,
          1.2125,
          1.2195,
          1.2266,
          1.2337,
          1.2409,
          1.2482,
          1.2555,
          1.2629,
          1.2704,
          1.2779,
          1.2855,
          1.2932,
          1.3009,
          1.3087,
          1.3166,
          1.3245,
          1.3325,
          1.3406,
          1.3488,
          1.357,
          1.3653,
          1.3737,
          1.3822,
          1.3907,
          1.3993,
          1.408,
          1.4168,
          1.4257,
          1.4346,
          1.4437,
          1.4528,
          1.462,
          1.4713,
          1.4807,
          1.4902,
          1.4997,
          1.5094,
          1.5191,
          1.529,
          1.5389,
          1.549,
          1.5591,
          1.5693,
          1.5797,
          1.5901,
          1.6007,
          1.6113,
          1.6221,
          1.633,
          1.6439,
          1.655,
          1.6662,
          1.6775,
          1.689,
          1.7005,
          1.7122,
          1.724,
          1.7359,
          1.7479,
          1.7601,
          1.7723,
          1.7848,
          1.7973,
          1.81,
          1.8228,
          1.8357,
          1.8488,
          1.862,
          1.8754,
          1.8889,
          1.9026,
          1.9164,
          1.9304,
          1.9445,
          1.9587,
          1.9732,
          1.9878,
          2.0025,
          2.0174,
          2.0325,
          2.0478,
          2.0632,
          2.0788,
          2.0945,
          2.1105,
          2.1266,
          2.143,
          2.1595,
          2.1762,
          2.1931,
          2.2102,
          2.2275,
          2.245,
          2.2627,
          2.2806,
          2.2987,
          2.3171,
          2.3357,
          2.3545,
          2.3735,
          2.3927,
          2.4122,
          2.4319,
          2.4519,
          2.4721,
          2.4926,
          2.5133,
          2.5343,
          2.5556,
          2.5771,
          2.5989,
          2.6209,
          2.6433,
          2.6659,
          2.6888,
          2.7121,
          2.7356,
          2.7594,
          2.7836,
          2.808,
          2.8328,
          2.8579,
          2.8834,
          2.9092,
          2.9353,
          2.9618,
          2.9887,
          3.0159,
          3.0435,
          3.0715,
          3.0999,
          3.1286,
          3.1578,
          3.1874,
          3.2174,
          3.2478,
          3.2786,
          3.3099,
          3.3417,
          3.3739,
          3.4065,
          3.4397,
          3.4733,
          3.5074,
          3.5421,
          3.5772,
          3.6129,
          3.6491,
          3.6859,
          3.7232,
          3.7611,
          3.7995,
          3.8386,
          3.8783,
          3.9186,
          3.9595,
          4.001,
          4.0432,
          4.0861,
          4.1297,
          4.174,
          4.219,
          4.2647,
          4.3112,
          4.3584,
          4.4064,
          4.4552,
          4.5048,
          4.5553,
          4.6066,
          4.6588,
          4.7119,
          4.7659,
          4.8208,
          4.8767,
          4.9335,
          4.9914,
          5.0503,
          5.1102,
          5.1712,
          5.2333,
          5.2965,
          5.3609,
          5.4264,
          5.4932,
          5.5612,
          5.6305,
          5.7011,
          5.773,
          5.8463,
          5.921,
          5.9971,
          6.0747,
          6.1538,
          6.2345,
          6.3168,
          6.4007,
          6.4863,
          6.5736,
          6.6627,
          6.7536,
          6.8464,
          6.9412,
          7.0379,
          7.1366,
          7.2375,
          7.3016,
          7.3275,
          7.3535,
          7.3796,
          7.4059,
          7.4324,
          7.459,
          7.4857,
          7.5126,
          7.5396,
          7.5667,
          7.594,
          7.6215,
          7.6491,
          7.6769,
          7.7048,
          7.7328,
          7.761,
          7.7894,
          7.8179,
          7.8466,
          7.8754,
          7.9044,
          7.9336,
          7.9629,
          7.9924,
          8.022,
          8.0518,
          8.0818,
          8.112,
          8.1423,
          8.1728,
          8.2034,
          8.2343,
          8.2653,
          8.2964,
          8.3278,
          8.3593,
          8.391,
          8.4229,
          8.455,
          8.4873,
          8.5197,
          8.5523,
          8.5852,
          8.6182,
          8.6514,
          8.6848,
          8.7183,
          8.7521,
          8.7861,
          8.8203,
          8.8546,
          8.8892,
          8.924,
          8.959,
          8.9942,
          9.0296,
          9.0652,
          9.101,
          9.137,
          9.1733,
          9.2097,
          9.2464,
          9.2833,
          9.3204,
          9.3578,
          9.3953,
          9.4331,
          9.4711,
          9.5094,
          9.5479,
          9.5866,
          9.6256,
          9.6647,
          9.7042,
          9.7439,
          9.7838,
          9.8239,
          9.8643,
          9.905,
          9.9459,
          9.9871,
          10.029,
          10.07,
          10.112,
          10.154,
          10.197,
          10.24,
          10.283,
          10.326,
          10.369,
          10.413,
          10.457,
          10.502,
          10.546,
          10.591,
          10.637,
          10.682,
          10.728,
          10.774,
          10.82,
          10.867,
          10.914,
          10.962,
          11.009,
          11.057,
          11.105,
          11.154,
          11.203,
          11.252,
          11.302,
          11.352,
          11.402,
          11.452,
          11.503,
          11.554,
          11.606,
          11.658,
          11.71,
          11.763,
          11.816,
          11.869,
          11.923,
          11.977,
          12.031,
          12.086,
          12.141,
          12.197,
          12.253,
          12.309,
          12.366,
          12.423,
          12.48,
          12.538,
          12.596,
          12.655,
          12.714,
          12.774,
          12.834,
          12.894,
          12.955,
          13.016,
          13.078,
          13.14,
          13.202,
          13.265,
          13.329,
          13.393,
          13.457,
          13.522,
          13.587,
          13.653,
          13.719,
          13.786,
          13.853,
          13.921,
          13.989,
          14.058,
          14.127,
          14.197,
          14.267,
          14.338,
          14.409,
          14.481,
          14.553,
          14.626,
          14.699,
          14.773,
          14.848,
          14.923,
          14.999,
          15.075,
          15.152,
          15.23,
          15.308,
          15.386,
          15.466,
          15.545,
          15.626,
          15.707,
          15.789,
          15.871,
          15.954,
          16.038,
          16.122,
          16.207,
          16.293,
          16.38,
          16.467,
          16.554,
          16.643,
          16.732,
          16.822,
          16.913,
          17.004,
          17.096,
          17.189,
          17.283,
          17.377,
          17.472,
          17.568,
          17.665,
          17.762,
          17.861,
          17.96,
          18.06,
          18.161,
          18.262,
          18.365,
          18.468,
          18.573,
          18.678,
          18.784,
          18.891,
          18.999,
          19.108,
          19.217,
          19.328,
          19.44,
          19.552,
          19.666,
          19.781,
          19.896,
          20.013,
          20.13,
          20.249,
          20.369,
          20.49,
          20.612,
          20.735,
          20.859,
          20.984,
          21.11,
          21.238,
          21.366,
          21.496,
          21.627,
          21.759,
          21.893,
          22.027,
          22.163,
          22.3,
          22.439,
          22.579,
          22.72,
          22.862,
          23.006,
          23.151,
          23.297,
          23.445,
          23.594,
          23.745,
          23.897,
          24.051,
          24.206,
          24.362,
          24.52,
          24.68,
          24.841,
          25.004,
          25.168,
          25.334,
          25.502,
          25.671,
          25.842,
          26.015,
          26.19,
          26.366,
          26.544,
          26.724,
          26.905,
          27.089,
          27.274,
          27.462,
          27.651,
          27.842,
          28.035,
          28.231,
          28.428,
          28.627,
          28.829,
          29.032,
          29.238,
          29.446,
          29.656,
          29.869,
          30.083,
          30.301,
          30.52,
          30.742,
          30.966,
          31.193,
          31.422,
          31.654,
          31.888,
          32.125,
          32.364,
          32.607,
          32.852,
          33.099,
          33.35,
          33.603,
          33.86,
          34.119,
          34.381,
          34.647,
          34.915,
          35.186,
          35.461,
          35.739,
          36.02,
          36.305,
          36.593,
          36.884,
          37.179,
          37.477,
          37.779,
          38.085,
          38.394,
          38.707,
          39.025,
          39.345,
          39.67,
          39.999
        ],
        [
          2333.0,
          2355.0,
          2836.3,
          1927.1,
          2392.4,
          1988.2,
          1722.0,
          2348.7,
          3479.4,
          3040.4,
          2690.2,
          3024.7,
          2177.5,
          3551.6,
          2466.9,
          2155.8,
          2064.2,
          1949.2,
          2384.3,
          2137.2,
          2335.1,
          2711.5,
          2217.8,
          2840.7,
          3524.1,
          2806.8,
          2099.8,
          2961.3,
          2075.6,
          2762.3,
          2449.7,
          2082.8,
          2711.9,
          2197.5,
          2708.4,
          2547.0,
          2425.5,
          2458.5,
          2323.0,
          2201.6,
          2362.3,
          2146.2,
          2541.3,
          2673.3,
          2721.8,
          2330.4,
          2625.4,
          2583.0,
          2113.8,
          2505.8,
          2690.6,
          2427.9,
          2402.2,
          2554.1,
          2628.3,
          1834.5,
          2316.1,
          2164.2,
          2270.8,
          2757.6,
          2333.5,
          1901.5,
          2283.3,
          1786.8,
          2534.0,
          2512.9,
          2690.5,
          2523.5,
          2339.5,
          2163.2,
          2065.6,
          1867.2,
          2230.1,
          2058.9,
          2030.1,
          2291.8,
          2440.9,
          2249.2,
          1982.2,
          2771.6,
          1867.3,
          1829.9,
          1927.9,
          1870.4,
          2059.3,
          2075.3,
          2150.0,
          2170.7,
          2420.1,
          2106.2,
          2426.5,
          2605.3,
          2330.8,
          2470.6,
          2092.7,
          2218.3,
          2609.7,
          2634.1,
          2356.8,
          2529.1,
          2595.8,
          1931.2,
          2249.3,
          2035.7,
          2346.3,
          2310.6,
          1904.1,
          1841.1,
          2082.2,
          2224.2,
          1868.5,
          2223.2,
          1766.7,
          1880.5,
          1998.8,
          2006.5,
          2094.1,
          2049.0,
          2279.1,
          1984.5,
          1787.6,
          1671.5,
          1915.0,
          1931.4,
          1804.8,
          2221.0,
          1880.2,
          2112.4,
          1850.5,
          2028.6,
          2116.1,
          1969.4,
          1764.6,
          1818.1,
          2174.2,
          2076.2,
          1771.7,
          1738.6,
          2031.6,
          2328.4,
          1773.6,
          2295.8,
          1853.4,
          1959.9,
          1800.8,
          2106.5,
          1777.6,
          1960.8,
          1955.7,
          1893.1,
          1824.1,
          2033.7,
          1744.0,
          1725.2,
          1875.1,
          1835.5,
          2031.7,
          1760.4,
          1777.4,
          1875.0,
          2043.8,
          2075.1,
          1919.0,
          1808.3,
          1866.0,
          1725.2,
          1904.0,
          1840.1,
          1814.3,
          1717.2,
          1647.4,
          2047.9,
          1823.8,
          1803.5,
          1862.8,
          1967.7,
          1952.2,
          1971.3,
          1693.4,
          1825.0,
          1657.3,
          1721.4,
          1906.6,
          1614.3,
          1634.6,
          1839.5,
          1796.5,
          1729.7,
          1662.4,
          1709.8,
          1727.5,
          1787.4,
          1700.4,
          1898.2,
          1727.8,
          1462.9,
          1728.5,
          1829.2,
          1607.5,
          1611.7,
          1625.7,
          1541.9,
          1752.0,
          1702.5,
          1795.1,
          1581.3,
          1499.9,
          1544.6,
          1737.2,
          1722.1,
          1682.1,
          1456.2,
          1819.2,
          1506.8,
          1749.5,
          1508.0,
          1560.0,
          1549.4,
          1729.3,
          1436.1,
          1403.7,
          1608.2,
          1360.5,
          1484.0,
          1729.4,
          1658.9,
          1556.8,
          1386.0,
          1585.4,
          1617.2,
          1573.4,
          1675.3,
          1559.3,
          1329.0,
          1589.5,
          1358.4,
          1404.4,
          1487.8,
          1361.0,
          1497.2,
          1552.5,
          1559.1,
          1641.3,
          1481.2,
          1725.3,
          1618.8,
          1605.6,
          1503.7,
          1586.9,
          1749.4,
          1533.8,
          1616.2,
          1528.1,
          1450.8,
          1517.2,
          1514.4,
          1312.6,
          1554.3,
          1561.7,
          1519.8,
          1499.2,
          1537.3,
          1361.9,
          1466.3,
          1448.7,
          1480.1,
          1598.6,
          1562.0,
          1460.1,
          1395.0,
          1436.2,
          1601.5,
          1564.9,
          1525.5,
          1421.0,
          1406.4,
          1460.8,
          1382.3,
          1426.3,
          1401.5,
          1376.2,
          1427.2,
          1511.4,
          1405.9,
          1482.0,
          1431.6,
          1422.2,
          1374.9,
          1485.9,
          1369.5,
          1289.3,
          1534.5,
          1330.5,
          1366.2,
          1405.4,
          1384.5,
          1352.0,
          1416.5,
          1389.6,
          1397.1,
          1179.8,
          1480.0,
          1314.0,
          1397.3,
          1385.4,
          1316.4,
          1215.1,
          1347.1,
          1410.5,
          1462.7,
          1312.4,
          1401.8,
          1454.5,
          1301.6,
          1429.6,
          1255.0,
          1259.7,
          1295.1,
          1311.1,
          1258.0,
          1345.8,
          1378.6,
          1207.3,
          1343.4,
          1351.7,
          1346.3,
          1221.7,
          1278.6,
          1430.1,
          1275.1,
          1266.1,
          1315.2,
          1300.2,
          1231.8,
          1297.2,
          1215.0,
          1278.1,
          1139.9,
          1268.6,
          1280.4,
          1332.5,
          1222.2,
          1306.3,
          1265.9,
          1194.4,
          1328.3,
          1228.9,
          1190.4,
          1179.5,
          1194.4,
          1247.6,
          1220.5,
          1199.0,
          1356.3,
          1281.4,
          1230.4,
          1268.8,
          1148.7,
          1180.7,
          1230.8,
          1161.0,
          1128.2,
          1173.2,
          1224.7,
          1222.2,
          1202.3,
          1169.6,
          1186.8,
          1186.3,
          1211.6,
          1220.2,
          1139.6,
          1207.1,
          1122.5,
          1261.1,
          1136.0,
          1149.0,
          1230.8,
          1144.3,
          1142.7,
          1115.6,
          1185.0,
          1076.7,
          1031.5,
          1130.2,
          1137.9,
          1160.6,
          1120.2,
          1101.2,
          1171.5,
          1149.0,
          1090.3,
          1110.9,
          1141.4,
          1084.7,
          1122.2,
          1134.2,
          1043.4,
          1140.4,
          1096.0,
          1130.5,
          1117.4,
          1094.9,
          1110.8,
          1158.4,
          1058.5,
          1087.5,
          1002.7,
          1076.2,
          1036.8,
          1035.1,
          1078.0,
          1014.7,
          1029.8,
          1048.4,
          1039.2,
          1022.2,
          1037.3,
          1017.1,
          1064.7,
          983.34,
          1111.8,
          1016.0,
          962.18,
          974.03,
          966.9,
          987.98,
          973.7,
          999.21,
          961.0,
          999.75,
          986.42,
          1008.4,
          1042.5,
          954.84,
          930.23,
          982.46,
          977.3,
          1000.3,
          971.88,
          958.67,
          941.84,
          968.83,
          1020.9,
          981.12,
          919.37,
          913.87,
          945.87,
          947.07,
          916.78,
          910.8,
          924.44,
          920.56,
          880.6,
          887.75,
          961.01,
          893.69,
          935.72,
          939.7,
          924.17,
          927.58,
          902.22,
          873.95,
          939.0,
          928.24,
          909.82,
          901.25,
          898.76,
          889.15,
          847.86,
          903.65,
          863.75,
          883.91,
          872.42,
          890.72,
          834.65,
          848.73,
          845.23,
          860.11,
          862.65,
          849.6,
          881.77,
          823.61,
          848.81,
          835.18,
          794.02,
          851.12,
          817.96,
          818.02,
          832.16,
          808.71,
          819.9,
          830.72,
          818.95,
          796.03,
          803.26,
          804.78,
          786.99,
          810.4,
          790.46,
          792.06,
          780.77,
          760.79,
          787.35,
          794.61,
          762.42,
          773.02,
          769.68,
          754.51,
          764.53,
          746.76,
          768.24,
          766.76,
          769.39,
          755.66,
          761.74,
          746.53,
          732.34,
          730.11,
          735.17,
          724.34,
          714.77,
          707.65,
          711.27,
          716.53,
          725.75,
          701.92,
          706.89,
          710.18,
          695.62,
          720.55,
          717.07,
          698.88,
          706.93,
          683.46,
          678.82,
          705.2,
          709.72,
          678.24,
          669.95,
          666.14,
          658.76,
          674.7,
          668.22,
          656.43,
          657.14,
          664.45,
          642.18,
          660.19,
          659.47,
          654.3,
          638.34,
          624.81,
          629.24,
          638.11,
          641.6,
          628.77,
          622.77,
          638.83,
          626.77,
          635.98,
          598.13,
          612.01,
          616.78,
          605.48,
          605.62,
          598.69,
          602.85,
          602.88,
          585.28,
          593.83,
          577.53,
          577.21,
          583.97,
          586.46,
          575.59,
          568.03,
          574.49,
          568.46,
          582.06,
          555.0,
          566.84,
          563.2,
          565.0,
          568.89,
          548.34,
          560.9,
          553.06,
          540.7,
          545.92,
          553.84,
          533.5,
          541.87,
          537.0,
          549.57,
          530.69,
          538.2,
          526.58,
          524.69,
          519.2,
          516.59,
          524.62,
          513.57,
          529.61,
          523.3,
          508.67,
          508.89,
          519.74,
          521.14,
          503.23,
          504.3,
          508.54,
          507.8,
          514.67,
          500.73,
          505.75,
          506.25,
          508.78,
          504.05,
          502.23,
          498.87,
          509.18,
          490.33,
          504.62,
          514.55,
          495.91,
          489.02,
          501.83,
          498.84,
          512.28,
          492.97,
          481.16,
          493.55,
          479.72,
          491.13,
          473.1,
          484.28,
          474.26,
          487.54,
          493.99,
          489.18,
          490.15,
          476.2,
          495.01,
          489.42,
          491.19,
          471.16,
          467.72,
          479.34,
          467.61,
          477.87,
          477.8,
          470.95,
          469.86,
          455.82,
          476.11,
          460.11,
          470.18,
          482.64,
          464.81,
          476.58,
          474.75,
          452.06,
          461.43,
          470.95,
          470.58,
          468.94,
          469.45,
          470.32,
          483.82,
          453.93,
          459.1,
          480.6,
          466.89,
          470.97,
          471.55,
          470.87,
          486.95,
          458.46,
          473.14,
          472.22,
          460.1,
          471.07,
          482.48,
          489.43,
          482.59,
          480.83,
          461.12,
          477.88,
          484.06,
          469.48,
          479.15,
          490.52,
          504.91,
          502.42,
          500.54,
          508.6,
          497.22,
          510.36,
          511.01,
          490.36,
          525.93,
          510.73,
          503.29,
          499.58,
          520.78,
          508.14,
          548.2,
          524.82,
          556.14,
          542.01,
          543.78,
          525.48,
          567.19,
          542.75,
          555.75,
          560.6,
          574.21,
          578.4,
          576.83,
          584.32,
          611.55,
          595.84,
          613.64,
          611.08,
          612.47,
          650.2,
          669.55,
          685.72,
          676.19,
          689.03,
          698.78,
          719.28,
          731.22,
          765.05,
          766.96,
          783.74,
          817.06,
          803.39,
          838.98,
          886.52,
          911.74,
          931.0,
          965.64,
          992.53,
          1058.0,
          1105.8,
          1143.2,
          1160.4,
          1267.9,
          1270.5,
          1372.4,
          1438.3,
          1489.9,
          1586.4,
          1668.1,
          1786.6,
          1866.9,
          2029.0,
          2129.7,
          2215.4,
          2379.0,
          2538.6,
          2679.5,
          2779.1,
          3005.6,
          3074.7,
          3083.4,
          3146.1,
          3237.3,
          3225.8,
          3142.0,
          3099.0,
          2954.3,
          2762.3,
          2563.5,
          2390.5,
          2159.9,
          1947.4,
          1785.9,
          1598.0,
          1392.7,
          1267.6,
          1142.4,
          1013.0,
          929.52,
          835.8,
          732.47,
          680.52,
          614.71,
          525.39,
          492.36,
          462.04,
          425.19,
          382.5,
          328.45,
          330.12,
          297.12,
          269.76,
          264.94,
          224.61,
          214.83,
          207.94,
          180.31,
          202.69,
          213.4,
          176.45,
          196.26,
          180.17,
          195.13,
          192.46,
          182.88,
          160.19,
          164.24,
          183.95,
          170.76,
          162.77,
          159.85,
          166.04,
          152.85,
          147.59,
          176.02,
          147.71,
          148.83,
          156.48,
          152.39,
          156.74,
          145.92,
          138.44,
          132.24,
          135.46,
          143.64,
          125.91,
          130.54,
          122.8,
          117.53,
          127.96,
          126.84,
          125.26,
          122.74,
          121.59,
          121.57,
          112.71,
          115.26,
          118.87,
          118.94,
          110.27,
          116.93,
          108.35,
          108.79,
          109.47,
          102.09,
          102.88,
          95.471,
          116.44,
          100.54,
          91.782,
          106.78,
          100.02,
          96.984,
          84.791,
          94.159,
          96.428,
          87.175,
          81.701,
          97.196,
          94.87,
          89.148,
          96.474,
          90.247,
          84.123,
          77.983,
          80.185,
          81.697,
          80.171,
          86.967,
          82.913,
          73.953,
          85.829,
          76.541,
          80.229,
          76.876,
          70.718,
          66.601,
          76.035,
          66.69,
          73.486,
          76.174,
          55.698,
          76.197,
          63.578,
          67.656,
          59.724,
          65.717,
          63.604,
          69.797,
          61.486,
          59.492,
          62.006,
          60.241,
          62.2,
          53.997,
          58.871,
          57.877,
          55.944,
          65.552,
          58.596,
          55.493,
          52.35,
          55.569,
          53.8,
          48.473,
          53.241,
          58.941,
          50.289,
          50.805,
          56.045,
          50.912,
          46.936,
          49.017,
          56.27,
          48.138,
          49.994,
          43.711,
          44.546,
          48.249,
          50.78,
          52.049,
          53.237,
          47.907,
          40.066,
          46.514,
          53.878,
          47.301,
          44.384,
          43.733,
          46.968,
          41.999,
          50.527,
          43.02,
          43.361,
          42.982,
          42.094,
          46.566,
          44.879,
          41.213,
          43.334,
          42.572,
          43.937,
          37.595,
          37.812,
          43.594,
          42.013,
          40.398,
          34.45,
          33.906,
          33.712,
          41.842,
          43.122,
          41.823,
          38.155,
          34.038,
          35.799,
          36.125,
          34.669,
          32.727,
          32.223,
          38.29,
          34.704,
          36.915,
          37.472,
          31.884,
          41.546,
          38.68,
          29.835,
          36.443,
          28.589,
          32.685,
          36.156,
          31.655,
          31.158,
          27.966,
          27.281,
          25.086,
          31.109,
          29.361,
          35.033,
          32.371,
          29.973,
          27.626,
          39.397,
          32.448,
          27.377,
          30.354,
          27.873,
          25.333,
          26.109,
          25.612,
          26.502,
          27.568,
          23.141,
          28.289,
          28.909,
          29.746,
          22.902,
          28.255,
          23.984,
          23.048,
          28.418,
          26.544,
          20.955,
          23.334,
          26.317,
          25.401,
          21.788,
          22.472,
          23.803,
          24.249,
          23.38,
          22.236,
          23.514,
          24.969,
          23.247,
          21.422,
          23.175,
          25.03,
          20.0,
          22.039,
          24.138,
          20.557,
          19.431,
          21.22,
          20.775,
          29.59,
          20.982,
          20.252,
          19.49,
          21.088,
          22.287,
          19.418,
          16.059,
          18.078,
          24.317,
          23.393,
          20.159,
          18.71,
          19.744,
          18.353,
          16.598,
          18.041,
          18.247,
          19.241,
          20.218,
          18.714,
          16.273,
          16.742,
          14.882,
          16.447,
          15.744,
          21.798,
          19.199,
          20.213,
          17.278,
          13.885,
          16.799,
          17.432,
          15.994,
          14.582,
          16.654,
          14.47,
          17.562,
          17.23,
          17.142,
          16.025,
          18.397,
          15.864,
          12.278,
          16.002,
          14.912,
          17.426,
          14.774,
          12.332,
          14.437,
          16.035,
          18.888,
          15.863,
          12.559,
          18.013,
          12.575,
          13.288,
          12.302,
          14.756,
          14.564,
          15.86,
          14.238,
          13.551,
          12.96,
          13.773,
          13.453,
          13.325,
          14.865,
          11.729,
          13.412,
          12.197,
          12.975,
          11.64,
          12.199,
          10.908,
          11.721,
          14.103,
          13.719,
          11.739,
          12.719,
          9.2093,
          9.9431,
          11.626,
          12.501,
          10.804,
          10.325,
          10.572,
          9.8536,
          11.194,
          10.615,
          11.24,
          9.8187,
          12.492,
          13.087,
          10.078,
          8.4142,
          11.208,
          8.5256,
          8.4365,
          12.217,
          7.2567,
          7.8375,
          8.6122,
          9.1111,
          9.5235,
          9.1498,
          11.003,
          9.0869,
          11.516,
          8.8564,
          10.154,
          9.0703,
          10.496,
          9.2375,
          8.0893,
          9.1016,
          7.3409,
          9.0052,
          7.9108,
          7.9491,
          10.002,
          9.796,
          8.5209,
          7.7981,
          8.3274,
          7.6905,
          7.4682,
          7.6914,
          8.8914,
          8.3804,
          8.0091,
          8.3395,
          8.219,
          7.4934,
          9.5296,
          8.256,
          8.4745,
          6.9641,
          5.5287,
          6.8503,
          6.7719,
          5.8881,
          6.2819,
          7.0133,
          6.7256,
          6.9087,
          6.9893,
          5.4745,
          6.6676,
          6.1071,
          5.9184,
          5.9369,
          7.2371,
          8.0617,
          8.6071,
          5.9659,
          6.8619,
          6.5432,
          8.6045,
          7.6556,
          8.323,
          8.1516,
          8.0814,
          9.9676,
          7.9769,
          9.5829,
          11.734,
          14.444,
          15.696,
          19.462,
          22.517,
          20.416,
          28.673,
          20.965,
          30.193,
          31.169,
          29.262,
          37.134,
          39.87,
          42.38,
          66.017,
          71.023,
          115.13,
          136.8,
          211.35,
          337.74,
          532.45,
          707.89,
          801.22,
          741.53,
          621.87,
          399.45,
          237.13,
          131.03,
          75.895,
          59.522,
          39.236,
          25.371,
          21.767,
          18.138,
          19.408,
          12.688,
          11.678,
          10.264,
          7.9294,
          6.1818,
          7.6316,
          3.9993,
          3.7608,
          5.4161,
          4.4901,
          4.6722,
          2.7841,
          3.7527,
          4.9802,
          5.9193,
          2.9532,
          4.7203,
          4.1038,
          2.4881,
          2.9491,
          2.4826,
          3.526,
          4.1335,
          3.5168,
          3.3775,
          4.1493,
          5.1176,
          4.2516,
          4.2167,
          3.6985,
          5.8178,
          4.0365,
          4.4296,
          6.3888,
          4.4639,
          2.5169,
          5.8752,
          4.21,
          4.1466,
          5.7805,
          5.0806,
          6.8345,
          4.5369,
          5.0155,
          7.8359,
          7.2563,
          7.7853,
          7.7899,
          11.311,
          9.0532,
          11.405,
          12.8,
          16.202,
          13.693,
          13.331,
          16.685,
          17.384,
          20.374,
          28.048,
          27.571,
          33.929,
          38.366,
          47.701,
          67.287,
          81.729,
          112.7,
          151.57,
          204.87,
          310.49,
          518.35,
          783.01,
          1083.6,
          1118.9,
          987.21,
          684.16,
          447.22,
          318.57,
          219.36,
          158.47,
          137.09,
          117.12,
          95.132,
          89.897,
          85.741,
          87.966,
          84.465,
          96.734,
          105.61,
          156.54,
          290.94,
          459.89,
          472.65,
          253.41,
          84.786,
          23.641,
          9.2985,
          5.6851,
          4.4353,
          7.9689,
          3.7572,
          7.18,
          6.5606,
          6.1202,
          7.8077,
          8.8855,
          9.1525,
          9.4816,
          8.521,
          6.1542,
          8.4875,
          9.7691,
          9.2952,
          10.888,
          10.925,
          10.536,
          12.304,
          10.132,
          11.832,
          15.166,
          14.207,
          15.692,
          18.735,
          21.272,
          26.132,
          26.074,
          42.168,
          50.176,
          77.001,
          162.56,
          297.61,
          338.4,
          214.71,
          105.61,
          173.78,
          471.59,
          761.23,
          575.37,
          244.62,
          121.37,
          88.95,
          72.951,
          72.364,
          91.068,
          99.032,
          104.53,
          115.87,
          107.64,
          103.43,
          79.187,
          76.131,
          62.626,
          49.662,
          38.235,
          28.345,
          25.92,
          25.243,
          17.847,
          16.636,
          16.846,
          13.644,
          13.924,
          14.256,
          12.643,
          14.547,
          16.35,
          17.866,
          25.204,
          39.959,
          99.005,
          312.65,
          571.87,
          382.24,
          101.42,
          23.409,
          13.504,
          6.4684,
          5.5925,
          3.2334,
          3.659,
          2.1546,
          2.4565,
          2.6166,
          1.4003,
          2.118,
          2.44,
          2.3749,
          2.2046,
          1.4769,
          2.6836,
          1.2622,
          1.3402,
          1.4472,
          1.9766,
          1.9647,
          1.2917,
          1.9412,
          1.6188,
          1.5972,
          1.8302,
          3.0776,
          2.8097,
          2.3563,
          3.9845,
          3.9523,
          5.1306,
          5.6273,
          10.562,
          25.613,
          73.249,
          327.5,
          596.18,
          284.36,
          74.39,
          25.917,
          18.277,
          10.151,
          8.4064,
          8.8515,
          5.5568,
          7.3369,
          14.236,
          23.256,
          12.423,
          1.1607,
          1.1746,
          1.809,
          2.018,
          1.645,
          1.4806,
          2.5522,
          2.8268,
          5.0893,
          5.8222,
          9.4374,
          32.818,
          184.58,
          235.22,
          44.444,
          8.3484,
          3.2955,
          1.5573,
          5.4713,
          4.5359,
          1.3413,
          1.4458,
          0.65441,
          0.55568,
          1.2366,
          0.41918,
          0.7812,
          0.44027,
          0.81793,
          0.21384,
          0.78828,
          0.39943,
          0.78626,
          0.81045,
          0.60889,
          0.78845,
          0.80133,
          0.3985,
          0.91875,
          0.89595,
          1.6104,
          13.72,
          42.718,
          19.73,
          4.2459,
          1.9015,
          1.5949,
          1.7251,
          1.1908,
          0.56623,
          1.4212,
          0.79751,
          0.37965,
          1.3424,
          5.7896,
          3.6222,
          1.2923,
          0.72452,
          1.1546,
          0.86523,
          1.15,
          1.3077,
          1.2537,
          1.2053,
          1.3491,
          0.78365,
          0.76644,
          1.1451,
          0.80692,
          1.2169
        ],
        [
          455.56,
          430.73,
          489.73,
          367.73,
          388.37,
          390.88,
          366.5,
          435.97,
          496.82,
          495.17,
          439.44,
          485.19,
          366.59,
          514.36,
          444.82,
          381.29,
          378.85,
          347.82,
          397.56,
          364.06,
          360.65,
          381.48,
          380.62,
          454.47,
          504.7,
          429.01,
          362.12,
          471.68,
          329.95,
          384.9,
          369.72,
          350.03,
          394.54,
          336.77,
          382.06,
          357.93,
          359.25,
          367.81,
          326.37,
          349.96,
          359.69,
          337.6,
          343.82,
          396.46,
          373.32,
          338.08,
          346.24,
          322.54,
          302.73,
          352.52,
          359.47,
          322.38,
          342.79,
          310.4,
          339.45,
          260.66,
          313.45,
          284.9,
          296.32,
          368.58,
          298.04,
          260.17,
          311.51,
          244.37,
          316.01,
          308.57,
          336.47,
          307.62,
          303.96,
          273.22,
          253.88,
          242.91,
          288.3,
          261.58,
          238.78,
          288.92,
          273.9,
          252.13,
          246.0,
          305.83,
          222.06,
          229.83,
          222.08,
          227.44,
          237.77,
          246.81,
          243.8,
          241.59,
          261.99,
          230.75,
          272.59,
          272.52,
          250.41,
          258.0,
          229.84,
          240.43,
          268.61,
          256.15,
          243.21,
          251.92,
          274.15,
          194.53,
          225.48,
          202.83,
          229.86,
          219.83,
          199.85,
          200.89,
          199.75,
          217.98,
          180.95,
          214.81,
          179.44,
          191.55,
          186.69,
          183.89,
          192.88,
          184.04,
          215.21,
          178.03,
          171.47,
          167.08,
          177.06,
          178.42,
          165.56,
          190.41,
          170.85,
          184.68,
          163.84,
          181.0,
          181.82,
          168.92,
          155.52,
          153.02,
          180.11,
          168.82,
          142.98,
          146.07,
          159.75,
          182.64,
          140.08,
          180.58,
          149.57,
          155.32,
          143.27,
          153.83,
          139.81,
          148.22,
          147.59,
          143.0,
          138.93,
          148.21,
          130.51,
          127.26,
          134.33,
          132.27,
          143.38,
          127.53,
          129.76,
          127.66,
          142.95,
          142.72,
          134.88,
          125.7,
          129.64,
          117.82,
          126.34,
          124.05,
          117.18,
          114.78,
          105.49,
          130.03,
          117.41,
          115.96,
          115.93,
          121.26,
          117.47,
          118.78,
          106.36,
          111.16,
          101.83,
          105.01,
          108.82,
          98.341,
          97.37,
          105.81,
          105.56,
          100.02,
          95.884,
          96.656,
          97.372,
          95.458,
          95.218,
          101.29,
          93.733,
          82.432,
          93.455,
          96.703,
          86.065,
          87.78,
          85.739,
          82.019,
          125.42,
          121.73,
          127.21,
          115.18,
          109.79,
          112.79,
          123.82,
          119.2,
          114.89,
          105.1,
          125.9,
          104.16,
          118.46,
          108.79,
          110.24,
          107.21,
          117.57,
          102.58,
          96.682,
          107.09,
          94.125,
          102.53,
          115.72,
          109.74,
          103.46,
          95.674,
          107.41,
          106.68,
          108.25,
          110.15,
          105.5,
          94.279,
          102.78,
          92.339,
          95.209,
          101.35,
          90.286,
          97.999,
          99.788,
          98.126,
          102.88,
          92.748,
          108.5,
          100.68,
          100.81,
          93.521,
          97.963,
          106.19,
          95.952,
          99.444,
          94.971,
          88.61,
          91.071,
          89.375,
          82.141,
          90.398,
          92.651,
          90.538,
          88.813,
          93.315,
          83.376,
          83.773,
          85.462,
          84.761,
          90.698,
          88.58,
          85.362,
          81.65,
          80.82,
          90.501,
          83.93,
          85.808,
          79.859,
          77.424,
          82.273,
          79.348,
          79.807,
          78.905,
          75.72,
          78.945,
          82.913,
          78.212,
          80.68,
          79.03,
          76.87,
          74.143,
          77.425,
          72.986,
          71.454,
          80.806,
          72.84,
          75.623,
          81.448,
          79.883,
          77.376,
          80.125,
          77.789,
          78.317,
          68.475,
          82.81,
          72.608,
          74.202,
          76.095,
          70.704,
          67.95,
          71.626,
          75.768,
          77.104,
          69.564,
          75.317,
          75.515,
          67.805,
          72.695,
          65.789,
          65.292,
          65.406,
          66.375,
          64.846,
          67.607,
          69.331,
          61.109,
          66.032,
          67.148,
          65.931,
          60.496,
          62.954,
          69.422,
          61.48,
          61.397,
          61.941,
          61.14,
          60.178,
          61.124,
          55.735,
          58.717,
          54.03,
          59.074,
          58.411,
          60.338,
          55.099,
          57.738,
          56.087,
          53.224,
          58.007,
          54.139,
          51.983,
          52.11,
          52.231,
          53.204,
          52.046,
          50.403,
          57.192,
          54.128,
          51.267,
          52.828,
          47.849,
          48.951,
          50.228,
          46.97,
          45.816,
          46.921,
          48.584,
          48.568,
          47.588,
          46.203,
          46.89,
          45.988,
          45.808,
          46.711,
          43.807,
          46.17,
          43.015,
          47.776,
          42.918,
          43.211,
          44.513,
          42.53,
          42.222,
          40.583,
          42.177,
          40.156,
          37.397,
          40.012,
          40.579,
          40.824,
          39.101,
          38.624,
          40.87,
          40.234,
          37.77,
          38.273,
          38.561,
          36.477,
          37.547,
          37.919,
          34.673,
          37.676,
          36.009,
          37.192,
          36.518,
          36.33,
          35.938,
          37.139,
          34.185,
          34.618,
          32.663,
          34.315,
          33.255,
          32.634,
          33.47,
          31.852,
          31.251,
          31.825,
          31.635,
          31.298,
          31.283,
          30.87,
          31.455,
          29.55,
          32.369,
          29.609,
          28.317,
          28.789,
          27.927,
          28.559,
          27.997,
          28.35,
          26.965,
          28.149,
          27.673,
          27.759,
          28.84,
          26.09,
          25.37,
          26.602,
          25.998,
          26.428,
          26.132,
          25.217,
          24.81,
          25.489,
          26.456,
          25.272,
          23.612,
          23.536,
          24.211,
          24.081,
          23.266,
          23.29,
          23.383,
          23.266,
          22.132,
          22.225,
          23.4,
          22.215,
          22.707,
          22.557,
          22.346,
          22.151,
          21.297,
          20.673,
          22.004,
          21.542,
          21.032,
          20.715,
          20.534,
          20.327,
          19.461,
          20.16,
          19.277,
          19.606,
          19.357,
          19.455,
          18.313,
          18.55,
          18.23,
          18.275,
          18.255,
          18.019,
          18.37,
          17.383,
          18.052,
          17.714,
          16.881,
          17.708,
          17.154,
          16.996,
          17.038,
          16.462,
          16.695,
          16.675,
          16.329,
          15.847,
          15.935,
          15.878,
          15.561,
          15.855,
          15.65,
          15.575,
          15.351,
          15.078,
          15.341,
          15.397,
          14.821,
          14.788,
          14.666,
          14.289,
          14.343,
          13.972,
          14.215,
          14.04,
          13.967,
          13.705,
          13.653,
          13.332,
          13.06,
          12.939,
          13.082,
          12.583,
          12.525,
          12.291,
          12.242,
          12.259,
          12.292,
          11.902,
          11.905,
          11.861,
          11.559,
          11.826,
          11.703,
          11.349,
          11.371,
          10.993,
          10.856,
          11.107,
          11.049,
          10.656,
          10.436,
          10.372,
          10.226,
          10.329,
          10.14,
          9.984,
          9.832,
          9.8879,
          9.574,
          9.7045,
          9.6459,
          9.5105,
          9.2471,
          9.1124,
          9.1141,
          9.113,
          9.1723,
          8.954,
          8.8262,
          8.9754,
          8.7382,
          8.8877,
          8.3555,
          8.5353,
          8.5078,
          8.3316,
          8.2721,
          8.1911,
          8.1762,
          8.1537,
          7.9624,
          7.9968,
          7.7352,
          7.6952,
          7.7492,
          7.7439,
          7.5772,
          7.4516,
          7.5116,
          7.3985,
          7.4878,
          7.2219,
          7.3139,
          7.1952,
          7.2291,
          7.1561,
          7.015,
          7.1003,
          6.9799,
          6.8311,
          6.8667,
          6.8696,
          6.6634,
          6.7096,
          6.6538,
          6.7321,
          6.5158,
          6.6176,
          6.4403,
          6.425,
          6.3449,
          6.2726,
          6.3452,
          8.851,
          9.0759,
          9.0232,
          8.7836,
          8.7833,
          8.8699,
          8.8592,
          8.6256,
          8.55,
          8.6605,
          8.6473,
          8.7696,
          8.5685,
          8.6153,
          8.6522,
          8.6612,
          8.5723,
          8.5436,
          8.4831,
          8.6478,
          8.4076,
          8.6025,
          8.8082,
          8.4885,
          8.406,
          8.5763,
          8.5182,
          8.6988,
          8.4591,
          8.3083,
          8.519,
          8.3051,
          8.4573,
          8.2023,
          8.3474,
          8.1957,
          8.3926,
          8.485,
          8.4077,
          8.4984,
          8.2935,
          8.5845,
          8.4575,
          8.5505,
          8.2243,
          8.1566,
          8.3697,
          8.1828,
          8.3328,
          8.3765,
          8.2527,
          8.2384,
          8.0425,
          8.4303,
          8.1661,
          8.2969,
          8.4779,
          8.2659,
          8.4923,
          8.4579,
          8.0858,
          8.2519,
          8.3895,
          8.3966,
          8.4123,
          8.4236,
          8.4299,
          8.604,
          8.2247,
          8.3809,
          8.6116,
          8.5412,
          8.5998,
          8.5027,
          8.6244,
          8.8444,
          8.3936,
          8.6676,
          8.6803,
          8.4911,
          8.7133,
          8.9973,
          9.0183,
          8.9478,
          8.9014,
          8.6509,
          8.9283,
          9.0236,
          8.8564,
          8.9663,
          9.3043,
          9.4995,
          9.5338,
          9.4703,
          9.6314,
          9.4715,
          9.6114,
          9.7039,
          9.3201,
          10.039,
          9.7504,
          9.5816,
          9.6206,
          9.978,
          9.7024,
          10.447,
          10.059,
          10.664,
          10.453,
          10.379,
          10.088,
          10.911,
          10.42,
          10.681,
          10.699,
          10.968,
          10.99,
          11.046,
          11.23,
          11.712,
          11.293,
          11.771,
          11.618,
          11.648,
          12.245,
          12.758,
          13.002,
          12.646,
          12.952,
          12.912,
          13.336,
          13.663,
          14.186,
          14.087,
          14.31,
          14.956,
          14.552,
          15.029,
          15.87,
          16.144,
          16.518,
          17.081,
          17.283,
          18.486,
          19.211,
          19.65,
          19.765,
          21.654,
          21.351,
          23.056,
          24.034,
          24.547,
          25.969,
          27.105,
          29.13,
          30.027,
          32.654,
          33.907,
          34.881,
          37.211,
          39.575,
          41.871,
          42.652,
          46.755,
          47.093,
          46.739,
          47.57,
          49.33,
          49.149,
          47.736,
          47.493,
          45.348,
          42.235,
          39.343,
          36.829,
          33.662,
          30.449,
          28.075,
          25.328,
          22.175,
          20.514,
          18.693,
          16.644,
          15.7,
          14.194,
          12.605,
          12.084,
          10.982,
          9.5303,
          9.0946,
          8.7391,
          8.2571,
          7.4943,
          6.6174,
          6.7187,
          6.1921,
          5.7881,
          5.71,
          4.9968,
          4.8409,
          10.734,
          9.6835,
          10.502,
          10.79,
          9.3591,
          10.19,
          9.7095,
          10.283,
          10.075,
          9.6752,
          8.8198,
          9.006,
          10.009,
          9.2301,
          8.8381,
          8.7565,
          8.9685,
          8.5076,
          8.2736,
          9.7201,
          8.4101,
          8.3237,
          8.6705,
          8.5597,
          8.7588,
          8.2665,
          8.0361,
          7.7319,
          7.7386,
          8.3407,
          7.5075,
          7.6944,
          7.3208,
          7.0614,
          7.5276,
          7.4353,
          7.5562,
          7.5503,
          7.4305,
          7.4837,
          6.8997,
          7.0479,
          7.2296,
          7.1674,
          6.7477,
          6.9767,
          6.716,
          6.8089,
          6.7678,
          6.46,
          6.3706,
          6.1612,
          7.0717,
          6.3862,
          6.0519,
          6.6519,
          6.3339,
          6.1303,
          5.6766,
          6.0988,
          6.1439,
          5.8262,
          5.5547,
          6.1546,
          6.1376,
          5.8947,
          6.1178,
          5.9786,
          5.7342,
          5.408,
          5.5453,
          5.5974,
          5.4017,
          5.7257,
          5.5986,
          5.1385,
          5.6564,
          5.3497,
          5.4538,
          5.3145,
          4.9777,
          4.8241,
          5.2235,
          4.8438,
          5.1752,
          5.258,
          4.3247,
          5.2018,
          4.7862,
          4.8627,
          4.506,
          4.7642,
          4.5585,
          4.9006,
          4.5141,
          4.4591,
          4.6104,
          4.5437,
          4.5438,
          4.1708,
          4.392,
          4.3752,
          4.2704,
          4.6618,
          4.3629,
          4.2146,
          4.092,
          4.233,
          4.1087,
          3.8622,
          4.1163,
          4.2873,
          4.0089,
          3.9672,
          4.257,
          3.999,
          3.7779,
          3.9474,
          4.2791,
          3.7882,
          3.8339,
          3.6078,
          3.6385,
          3.8528,
          4.0054,
          4.039,
          4.0974,
          3.7845,
          3.4176,
          3.6579,
          4.0625,
          3.746,
          3.5992,
          3.5745,
          3.7198,
          3.4447,
          3.8608,
          3.5785,
          3.5557,
          3.5024,
          3.5087,
          3.7527,
          3.6703,
          3.4752,
          3.5785,
          3.5223,
          3.5492,
          3.2145,
          3.2242,
          3.5835,
          3.4761,
          3.3544,
          3.0439,
          3.0366,
          3.0187,
          3.4539,
          3.5157,
          3.4029,
          3.1894,
          2.9983,
          3.0785,
          3.1297,
          3.0167,
          2.9192,
          2.893,
          3.1664,
          3.0118,
          3.1433,
          3.1245,
          2.917,
          3.4174,
          3.224,
          2.763,
          3.0549,
          2.7291,
          2.9105,
          3.0122,
          2.8452,
          2.7882,
          2.6252,
          2.558,
          2.4437,
          2.8375,
          2.7651,
          2.9823,
          2.8456,
          2.7299,
          2.627,
          3.2119,
          2.8749,
          2.5613,
          2.6989,
          2.5903,
          2.4954,
          2.499,
          2.481,
          2.5183,
          2.5329,
          2.324,
          2.5936,
          2.6243,
          2.6852,
          2.3003,
          2.4896,
          2.3093,
          2.2849,
          2.5423,
          2.4571,
          2.1929,
          2.3484,
          2.4458,
          2.3568,
          2.1374,
          2.2079,
          2.285,
          2.2824,
          2.2723,
          2.1851,
          2.2291,
          2.2908,
          2.1943,
          2.1316,
          2.2061,
          2.3254,
          2.0831,
          2.158,
          2.2574,
          2.0438,
          1.9926,
          2.0847,
          2.0303,
          2.484,
          2.0896,
          2.0521,
          2.0106,
          2.0371,
          2.0631,
          1.9199,
          1.8043,
          1.8793,
          2.1865,
          2.1474,
          1.9801,
          1.9014,
          1.921,
          1.8553,
          1.7762,
          1.8497,
          1.845,
          1.8882,
          1.9374,
          1.86,
          1.7231,
          1.7476,
          1.6515,
          1.7161,
          1.6931,
          2.0074,
          1.9125,
          1.94,
          1.7632,
          1.576,
          1.7386,
          1.7719,
          1.6867,
          1.5658,
          1.6904,
          1.5888,
          1.7376,
          1.7194,
          1.7267,
          1.6577,
          1.7851,
          1.6327,
          1.464,
          1.632,
          1.5713,
          1.6956,
          1.5408,
          1.4427,
          1.5618,
          1.6372,
          1.8227,
          1.6116,
          1.4168,
          1.7064,
          1.4106,
          1.4348,
          1.3631,
          1.5184,
          1.545,
          1.6136,
          1.5096,
          1.4419,
          1.392,
          1.4439,
          1.4095,
          1.4492,
          1.5102,
          1.3313,
          1.3986,
          1.3232,
          1.3731,
          1.2755,
          1.3025,
          1.2288,
          1.2781,
          1.3987,
          1.4055,
          1.2954,
          1.3541,
          1.1337,
          1.1687,
          1.2617,
          1.3171,
          1.2185,
          1.1701,
          1.1709,
          1.1366,
          1.2214,
          1.2124,
          1.2133,
          1.119,
          1.2787,
          1.3166,
          1.1573,
          1.028,
          1.1915,
          1.0423,
          1.0313,
          1.2331,
          0.95516,
          0.99296,
          1.032,
          1.0446,
          1.0607,
          1.0495,
          1.141,
          1.0295,
          1.1619,
          1.003,
          1.0728,
          1.0221,
          1.1166,
          1.0175,
          0.96295,
          1.0203,
          0.89659,
          0.98054,
          0.94173,
          0.94021,
          1.0639,
          1.0528,
          0.96019,
          0.90445,
          0.93245,
          0.89775,
          0.87699,
          0.9041,
          0.96435,
          0.92839,
          0.91333,
          0.90317,
          0.8949,
          0.86412,
          0.98381,
          0.91525,
          0.91917,
          0.82327,
          0.72127,
          0.80435,
          0.79502,
          0.7341,
          0.76199,
          0.80359,
          0.77974,
          0.79659,
          0.7865,
          0.7092,
          0.77341,
          0.72096,
          0.7178,
          0.72022,
          0.78356,
          0.82661,
          0.84739,
          0.70432,
          0.74624,
          0.7274,
          0.85584,
          0.78059,
          0.80861,
          0.79505,
          0.78811,
          0.87973,
          0.77794,
          0.85414,
          0.94181,
          1.0542,
          1.1188,
          2.5388,
          2.7836,
          2.6193,
          3.1006,
          2.528,
          3.3333,
          3.2756,
          3.1462,
          3.6723,
          3.801,
          3.828,
          5.227,
          5.5051,
          8.063,
          9.3688,
          13.232,
          20.074,
          30.213,
          39.386,
          43.522,
          41.045,
          35.693,
          23.557,
          14.808,
          8.8722,
          5.7796,
          4.9938,
          3.6786,
          2.8238,
          2.5251,
          2.266,
          2.3623,
          1.9285,
          1.8444,
          1.7313,
          1.4863,
          1.3098,
          1.4527,
          1.069,
          1.0041,
          1.2247,
          1.0945,
          1.1084,
          0.86991,
          1.0019,
          1.1834,
          1.2529,
          0.92362,
          1.1522,
          1.0616,
          0.81635,
          0.88137,
          0.81459,
          0.94067,
          1.0062,
          0.93826,
          0.93348,
          1.0408,
          1.1565,
          1.0359,
          1.0273,
          0.98797,
          1.2322,
          1.0122,
          1.0507,
          1.2541,
          1.0314,
          0.78606,
          1.2193,
          1.0261,
          1.0408,
          1.2519,
          1.1489,
          1.2773,
          1.0491,
          1.1071,
          1.4266,
          1.3597,
          1.3367,
          1.3377,
          1.6822,
          1.4678,
          1.6645,
          1.783,
          2.0931,
          1.8696,
          1.8168,
          2.1027,
          2.1023,
          2.2876,
          2.7949,
          2.784,
          3.1126,
          3.4111,
          4.0452,
          5.217,
          5.92,
          7.5032,
          9.3089,
          11.718,
          17.467,
          28.445,
          42.314,
          59.499,
          59.167,
          53.262,
          37.383,
          24.576,
          17.831,
          12.753,
          9.5399,
          8.5409,
          7.5979,
          6.4923,
          6.2683,
          6.0634,
          6.1321,
          5.9918,
          6.791,
          7.0069,
          9.6536,
          16.491,
          25.427,
          26.411,
          14.809,
          5.8438,
          2.4221,
          1.3622,
          1.0783,
          0.97929,
          1.3071,
          0.84627,
          1.1871,
          1.1922,
          1.1092,
          1.2646,
          1.399,
          1.4121,
          1.4064,
          1.339,
          1.0992,
          1.319,
          1.4382,
          1.3645,
          1.5144,
          1.5471,
          1.4628,
          1.5958,
          1.4283,
          1.5777,
          1.8026,
          1.7536,
          1.8609,
          2.0267,
          2.1599,
          2.4714,
          2.434,
          3.3224,
          3.6844,
          5.1203,
          9.7207,
          16.867,
          18.56,
          12.197,
          6.5389,
          10.096,
          24.445,
          39.626,
          30.483,
          13.58,
          7.4414,
          6.0338,
          5.0286,
          4.8184,
          5.8888,
          6.2856,
          6.5641,
          7.169,
          6.8867,
          6.5348,
          5.293,
          5.266,
          4.6001,
          3.7142,
          3.0198,
          2.4672,
          2.37,
          2.3502,
          1.879,
          1.7781,
          1.8204,
          1.5758,
          1.5937,
          1.6448,
          1.5211,
          1.6464,
          1.7725,
          1.878,
          2.2987,
          3.1349,
          6.4563,
          17.204,
          30.33,
          20.897,
          6.3871,
          2.1578,
          1.5472,
          1.048,
          0.93488,
          0.71239,
          0.77331,
          0.59576,
          0.63494,
          0.65611,
          0.4859,
          0.58559,
          0.61111,
          0.61365,
          0.58845,
          0.48515,
          0.63576,
          0.46582,
          0.46502,
          0.47536,
          0.56782,
          0.56439,
          0.47692,
          0.55759,
          0.50638,
          0.49957,
          0.52529,
          0.67835,
          0.64928,
          0.59037,
          0.7676,
          0.77514,
          0.869,
          0.87811,
          1.2353,
          2.2306,
          4.6788,
          17.039,
          29.491,
          14.68,
          4.6977,
          2.1951,
          1.7766,
          1.2152,
          1.0674,
          1.1125,
          0.87843,
          1.0325,
          1.4993,
          2.0578,
          1.366,
          0.40279,
          0.40767,
          0.50019,
          0.5392,
          0.47225,
          0.44269,
          0.56151,
          0.60933,
          0.8428,
          0.86639,
          1.1081,
          2.464,
          9.8419,
          12.686,
          3.1836,
          1.0649,
          0.64516,
          0.44703,
          0.82123,
          0.75831,
          0.41965,
          0.43247,
          0.30904,
          0.29487,
          0.40651,
          0.25789,
          0.33535,
          0.2709,
          0.32365,
          0.2175,
          0.33839,
          0.24566,
          0.31099,
          0.32061,
          0.2874,
          0.31185,
          0.31699,
          0.24507,
          0.33896,
          0.33048,
          0.42943,
          1.3428,
          2.889,
          1.7279,
          0.6756,
          0.44965,
          0.44097,
          0.44542,
          0.37229,
          0.26724,
          0.40792,
          0.3156,
          0.23351,
          0.38507,
          0.79848,
          0.61925,
          0.37048,
          0.28651,
          0.36095,
          0.3192,
          0.35954,
          0.37507,
          0.35939,
          0.36017,
          0.37239,
          0.2889,
          0.28249,
          0.34199,
          0.29755,
          0.36375
        ]
      ]
    }
  }
}