{
  "bib": {
    "title": "Neutron Induced Charged Particle Reactions On 23-Na",
    "authors": [
      {
        "name": "H.Weigmann"
      },
      {
        "name": "G.F.Auchampaugh"
      },
      {
        "name": "P.W.Lisowski"
      },
      {
        "name": "M.S.Moore"
      },
      {
        "name": "G.L.Morgan"
      }
    ],
    "institutes": [
      {
        "x4_code": "(1USALAS)",
        "free_txt": []
      }
    ],
    "references": {
      "0": [
        {
          "x4_code": "(C,82ANTWER,,814,8209)",
          "free_txt": [],
          "publication_year": "1982"
        }
      ]
    },
    "facility": {
      "0": [
        {
          "x4_code": "(MESON)",
          "free_txt": [
            " LAMPF-WNR"
          ]
        }
      ]
    },
    "history": [
      {
        "x4_code": "(860827C)",
        "free_txt": []
      },
      {
        "x4_code": "(861114A)",
        "free_txt": [
          " BIB, COMMON UPDATED."
        ]
      }
    ]
  },
  "12965-001": {
    "extra_information": {
      "correction": {
        "0": [
          {
            "x4_code": null,
            "free_txt": [
              "NO INFORMATION GIVEN"
            ]
          }
        ]
      },
      "detector": {
        "0": [
          {
            "x4_code": "(NAICR)",
            "free_txt": [
              " NAI(TL) SCINTILLATOR CRYSTAL, 2 INCHES",
              " DIAMETER AND 2 INCHES THICK"
            ]
          }
        ]
      },
      "err-analys": {
        "0": [
          {
            "x4_code": "(DATA-ERR)",
            "free_txt": [
              " STATISTICAL ERROR PLUS RELATIVE",
              " NEUTRON FLUX SHAPE.",
              "NOT INCLUDED IS THE CROSS CONTAMINATION BETWEEN",
              " PROTON AND ALPHA DETECTION DUE TO INSUFFICIENT",
              " PSD RESOLUTION, LESS THAN 5. PERCENT."
            ]
          }
        ]
      },
      "facility": {
        "0": [
          {
            "x4_code": "(MESON)",
            "free_txt": [
              " LAMPF-WNR"
            ]
          }
        ]
      },
      "inc-source": {
        "0": [
          {
            "x4_code": "(EVAP)",
            "free_txt": [
              " SPALLATION SOURCE OF WNR"
            ]
          }
        ]
      },
      "method": {
        "0": [
          {
            "x4_code": "(TOF,PSD)",
            "free_txt": [
              " 80 METER FLIGHT PATH, TIME RESOLUTION",
              "          FWHM 1.2 NSEC."
            ]
          }
        ]
      },
      "monitor": {
        "0": [
          {
            "x4_code": "(1-H-1(N,EL)1-H-1,,SIG)",
            "free_txt": []
          }
        ]
      },
      "sample": {
        "0": [
          {
            "x4_code": null,
            "free_txt": [
              "SAME NAI(TL) CRYSTAL AS THE DETECTOR"
            ]
          }
        ]
      },
      "status": {
        "0": [
          {
            "x4_code": null,
            "free_txt": [
              "DATA RECEIVED IN PRIVATE COMMUNICATION FROM",
              " H. WEIGMANN 86/7/29."
            ]
          },
          {
            "x4_code": "(APRVD)",
            "free_txt": [
              " H.WEIGMANN, 86/9/26."
            ]
          }
        ]
      }
    }
  },
  "12965-002": {
    "reaction": {
      "0": {
        "x4_code": "(11-NA-23(N,P)10-NE-23,,SIG)",
        "0": {
          "code": [
            "11-NA-23",
            [
              "N,P"
            ],
            "10-NE-23,,SIG"
          ],
          "type": null,
          "target": "11-NA-23",
          "process": "N,P",
          "sf49": "10-NE-23,,SIG",
          "sf4": "10-NE-23",
          "sf5": null,
          "sf6": "SIG",
          "sf7": null,
          "sf8": null,
          "sf9": null
        },
        "type": null,
        "free_text": ""
      }
    },
    "extra_information": {
      "monitor": {
        "0": [
          {
            "x4_code": "(11-NA-23(N,P)10-NE-23,,SIG)",
            "free_txt": [
              " NORMALIZED TO ENDF-IV",
              "   VALUES BETWEEN 8 AND 9 MEV"
            ]
          }
        ]
      }
    },
    "common": null,
    "data": {
      "heads": [
        "EN",
        "DATA",
        "DATA-ERR"
      ],
      "units": [
        "MEV",
        "MB",
        "MB"
      ],
      "data": [
        [
          5.22,
          5.224,
          5.229,
          5.233,
          5.237,
          5.241,
          5.245,
          5.249,
          5.253,
          5.257,
          5.262,
          5.266,
          5.27,
          5.274,
          5.278,
          5.282,
          5.287,
          5.291,
          5.295,
          5.299,
          5.303,
          5.308,
          5.312,
          5.316,
          5.32,
          5.324,
          5.329,
          5.333,
          5.337,
          5.341,
          5.346,
          5.35,
          5.354,
          5.358,
          5.363,
          5.367,
          5.371,
          5.375,
          5.38,
          5.384,
          5.388,
          5.393,
          5.397,
          5.401,
          5.406,
          5.41,
          5.414,
          5.418,
          5.423,
          5.427,
          5.432,
          5.436,
          5.44,
          5.445,
          5.449,
          5.453,
          5.458,
          5.462,
          5.467,
          5.471,
          5.475,
          5.48,
          5.484,
          5.489,
          5.493,
          5.497,
          5.502,
          5.506,
          5.511,
          5.515,
          5.52,
          5.524,
          5.528,
          5.533,
          5.538,
          5.542,
          5.547,
          5.551,
          5.556,
          5.56,
          5.564,
          5.569,
          5.573,
          5.578,
          5.583,
          5.587,
          5.592,
          5.596,
          5.601,
          5.605,
          5.61,
          5.614,
          5.619,
          5.624,
          5.628,
          5.633,
          5.637,
          5.642,
          5.647,
          5.651,
          5.656,
          5.66,
          5.665,
          5.67,
          5.674,
          5.679,
          5.684,
          5.688,
          5.693,
          5.698,
          5.702,
          5.707,
          5.712,
          5.716,
          5.721,
          5.726,
          5.731,
          5.735,
          5.74,
          5.745,
          5.749,
          5.754,
          5.759,
          5.764,
          5.768,
          5.773,
          5.778,
          5.783,
          5.788,
          5.792,
          5.797,
          5.802,
          5.807,
          5.811,
          5.816,
          5.821,
          5.826,
          5.831,
          5.836,
          5.841,
          5.845,
          5.85,
          5.855,
          5.86,
          5.865,
          5.87,
          5.875,
          5.88,
          5.884,
          5.889,
          5.894,
          5.899,
          5.904,
          5.909,
          5.914,
          5.919,
          5.924,
          5.929,
          5.934,
          5.939,
          5.944,
          5.949,
          5.954,
          5.959,
          5.964,
          5.969,
          5.974,
          5.979,
          5.984,
          5.989,
          5.994,
          5.999,
          6.004,
          6.009,
          6.014,
          6.019,
          6.024,
          6.029,
          6.035,
          6.04,
          6.045,
          6.05,
          6.055,
          6.06,
          6.065,
          6.07,
          6.075,
          6.081,
          6.086,
          6.091,
          6.096,
          6.101,
          6.106,
          6.112,
          6.117,
          6.122,
          6.127,
          6.132,
          6.138,
          6.143,
          6.148,
          6.153,
          6.159,
          6.164,
          6.169,
          6.175,
          6.18,
          6.185,
          6.19,
          6.196,
          6.201,
          6.206,
          6.212,
          6.217,
          6.222,
          6.228,
          6.233,
          6.238,
          6.244,
          6.249,
          6.255,
          6.26,
          6.265,
          6.271,
          6.276,
          6.281,
          6.287,
          6.292,
          6.298,
          6.303,
          6.309,
          6.314,
          6.319,
          6.325,
          6.33,
          6.336,
          6.341,
          6.347,
          6.352,
          6.358,
          6.363,
          6.369,
          6.375,
          6.38,
          6.386,
          6.391,
          6.397,
          6.402,
          6.408,
          6.413,
          6.419,
          6.425,
          6.43,
          6.436,
          6.441,
          6.447,
          6.453,
          6.458,
          6.464,
          6.47,
          6.475,
          6.481,
          6.487,
          6.492,
          6.498,
          6.504,
          6.509,
          6.515,
          6.521,
          6.527,
          6.532,
          6.538,
          6.544,
          6.55,
          6.555,
          6.561,
          6.567,
          6.573,
          6.579,
          6.584,
          6.59,
          6.596,
          6.602,
          6.608,
          6.613,
          6.619,
          6.625,
          6.631,
          6.637,
          6.643,
          6.649,
          6.655,
          6.661,
          6.667,
          6.672,
          6.678,
          6.684,
          6.69,
          6.696,
          6.702,
          6.708,
          6.714,
          6.72,
          6.726,
          6.732,
          6.738,
          6.744,
          6.75,
          6.756,
          6.762,
          6.768,
          6.774,
          6.781,
          6.786,
          6.793,
          6.799,
          6.805,
          6.811,
          6.817,
          6.823,
          6.829,
          6.835,
          6.842,
          6.848,
          6.854,
          6.86,
          6.866,
          6.873,
          6.879,
          6.885,
          6.891,
          6.897,
          6.904,
          6.91,
          6.916,
          6.922,
          6.929,
          6.935,
          6.941,
          6.948,
          6.954,
          6.96,
          6.967,
          6.973,
          6.979,
          6.986,
          6.992,
          6.998,
          7.005,
          7.011,
          7.017,
          7.024,
          7.03,
          7.037,
          7.043,
          7.049,
          7.056,
          7.062,
          7.069,
          7.075,
          7.082,
          7.088,
          7.095,
          7.101,
          7.108,
          7.114,
          7.121,
          7.127,
          7.134,
          7.141,
          7.147,
          7.154,
          7.16,
          7.167,
          7.173,
          7.18,
          7.187,
          7.193,
          7.2,
          7.207,
          7.213,
          7.22,
          7.227,
          7.233,
          7.24,
          7.247,
          7.253,
          7.26,
          7.267,
          7.274,
          7.28,
          7.287,
          7.294,
          7.301,
          7.307,
          7.314,
          7.321,
          7.328,
          7.335,
          7.342,
          7.349,
          7.355,
          7.362,
          7.369,
          7.376,
          7.383,
          7.39,
          7.397,
          7.404,
          7.411,
          7.418,
          7.425,
          7.432,
          7.439,
          7.446,
          7.453,
          7.46,
          7.467,
          7.474,
          7.481,
          7.488,
          7.495,
          7.502,
          7.509,
          7.516,
          7.523,
          7.53,
          7.537,
          7.544,
          7.552,
          7.559,
          7.566,
          7.573,
          7.58,
          7.587,
          7.594,
          7.602,
          7.609,
          7.616,
          7.623,
          7.631,
          7.638,
          7.645,
          7.653,
          7.66,
          7.667,
          7.674,
          7.682,
          7.689,
          7.696,
          7.704,
          7.711,
          7.719,
          7.726,
          7.733,
          7.741,
          7.748,
          7.756,
          7.763,
          7.771,
          7.778,
          7.785,
          7.793,
          7.8,
          7.808,
          7.815,
          7.823,
          7.83,
          7.838,
          7.846,
          7.853,
          7.861,
          7.868,
          7.876,
          7.884,
          7.891,
          7.899,
          7.906,
          7.914,
          7.922,
          7.929,
          7.937,
          7.945,
          7.953,
          7.96,
          7.968,
          7.976,
          7.984,
          7.991,
          7.999,
          8.007,
          8.015,
          8.023,
          8.03,
          8.038,
          8.046,
          8.054,
          8.062,
          8.07,
          8.078,
          8.086,
          8.094,
          8.101,
          8.109,
          8.117,
          8.125,
          8.133,
          8.141,
          8.149,
          8.157,
          8.165,
          8.173,
          8.181,
          8.189,
          8.198,
          8.206,
          8.214,
          8.222,
          8.23,
          8.238,
          8.246,
          8.255,
          8.263,
          8.271,
          8.279,
          8.287,
          8.295,
          8.304,
          8.312,
          8.32,
          8.328,
          8.337,
          8.345,
          8.353,
          8.362,
          8.37,
          8.378,
          8.387,
          8.395,
          8.403,
          8.412,
          8.42,
          8.429,
          8.437,
          8.446,
          8.454,
          8.463,
          8.471,
          8.479,
          8.488,
          8.497,
          8.505,
          8.514,
          8.522,
          8.531,
          8.539,
          8.548,
          8.557,
          8.565,
          8.574,
          8.583,
          8.591,
          8.6,
          8.609,
          8.617,
          8.626,
          8.635,
          8.644,
          8.652,
          8.661,
          8.67,
          8.679,
          8.688,
          8.696,
          8.705,
          8.714,
          8.723,
          8.732,
          8.741,
          8.75,
          8.759,
          8.767,
          8.776,
          8.785,
          8.794,
          8.803,
          8.812,
          8.821,
          8.83,
          8.839,
          8.849,
          8.858,
          8.867,
          8.876,
          8.885,
          8.894,
          8.903,
          8.912,
          8.922,
          8.931,
          8.94,
          8.949,
          8.958,
          8.968,
          8.977,
          8.986,
          8.995,
          9.005,
          9.014,
          9.023,
          9.033,
          9.042,
          9.052,
          9.061,
          9.07,
          9.08,
          9.089,
          9.099,
          9.108,
          9.118,
          9.127,
          9.137,
          9.146,
          9.156,
          9.165,
          9.175,
          9.184,
          9.194,
          9.204,
          9.213,
          9.223,
          9.233,
          9.242,
          9.252,
          9.262,
          9.271,
          9.281,
          9.291,
          9.301,
          9.31,
          9.32,
          9.33,
          9.34,
          9.35,
          9.359,
          9.369,
          9.379,
          9.389,
          9.399,
          9.409,
          9.419,
          9.429,
          9.439,
          9.449,
          9.459,
          9.469,
          9.479,
          9.489,
          9.499,
          9.509,
          9.519,
          9.53,
          9.54,
          9.55,
          9.56,
          9.57,
          9.581,
          9.591,
          9.601,
          9.611,
          9.622,
          9.632,
          9.642,
          9.653,
          9.663,
          9.673,
          9.684,
          9.694,
          9.705,
          9.715,
          9.725,
          9.736,
          9.746,
          9.757,
          9.767,
          9.778,
          9.788,
          9.799,
          9.81,
          9.82,
          9.831,
          9.841,
          9.852,
          9.863,
          9.873,
          9.884,
          9.895,
          9.906,
          9.916,
          9.927,
          9.938,
          9.949,
          9.96,
          9.97,
          9.981,
          9.992,
          10.0,
          10.01,
          10.02,
          10.04,
          10.05,
          10.06,
          10.07,
          10.08,
          10.09,
          10.1,
          10.11,
          10.12,
          10.14,
          10.15,
          10.16,
          10.17,
          10.18,
          10.19,
          10.2,
          10.21,
          10.23,
          10.24,
          10.25,
          10.26,
          10.27,
          10.28,
          10.29,
          10.3,
          10.32,
          10.33,
          10.34,
          10.35,
          10.36,
          10.37,
          10.39,
          10.4,
          10.41,
          10.42,
          10.43,
          10.44,
          10.45,
          10.47,
          10.48,
          10.49,
          10.5,
          10.51,
          10.52,
          10.54,
          10.55,
          10.56,
          10.57,
          10.58,
          10.6,
          10.61,
          10.62,
          10.63,
          10.64,
          10.66,
          10.67,
          10.68,
          10.69,
          10.7,
          10.72,
          10.73,
          10.74,
          10.75,
          10.76,
          10.78,
          10.79,
          10.8,
          10.81,
          10.83,
          10.84,
          10.85,
          10.86,
          10.88,
          10.89,
          10.9,
          10.91,
          10.93,
          10.94,
          10.95,
          10.96,
          10.98,
          10.99,
          11.0
        ],
        [
          2.342,
          0.9296,
          -0.2433,
          2.188,
          1.07,
          0.5337,
          1.595,
          2.029,
          2.868,
          1.161,
          1.593,
          2.527,
          2.204,
          2.815,
          2.575,
          2.666,
          2.257,
          2.767,
          2.065,
          2.404,
          1.903,
          3.189,
          2.827,
          0.7541,
          3.284,
          3.418,
          4.104,
          5.058,
          4.483,
          7.589,
          5.97,
          9.163,
          8.302,
          6.688,
          8.744,
          7.733,
          11.42,
          11.03,
          11.1,
          11.75,
          11.27,
          8.511,
          10.95,
          9.684,
          5.98,
          9.658,
          6.837,
          7.364,
          4.271,
          7.167,
          7.573,
          6.597,
          9.047,
          9.067,
          11.19,
          9.127,
          10.38,
          9.546,
          11.54,
          9.91,
          9.096,
          9.959,
          12.31,
          12.69,
          11.24,
          11.11,
          9.711,
          10.1,
          8.172,
          13.18,
          9.933,
          17.88,
          18.75,
          13.19,
          10.19,
          12.26,
          11.41,
          9.278,
          7.732,
          11.07,
          10.06,
          9.054,
          10.77,
          8.314,
          6.775,
          10.45,
          9.202,
          7.733,
          8.891,
          9.971,
          8.092,
          10.24,
          10.7,
          7.454,
          9.224,
          9.371,
          13.62,
          8.071,
          10.56,
          10.36,
          11.78,
          9.934,
          13.83,
          14.5,
          13.23,
          12.99,
          16.22,
          14.05,
          19.01,
          16.99,
          22.96,
          18.78,
          17.42,
          15.42,
          18.94,
          15.18,
          14.65,
          15.88,
          15.77,
          17.85,
          17.26,
          14.67,
          17.58,
          16.15,
          15.06,
          14.85,
          11.96,
          15.18,
          15.08,
          18.35,
          18.19,
          21.33,
          15.4,
          20.43,
          13.49,
          15.91,
          17.92,
          21.81,
          17.2,
          22.64,
          24.56,
          25.7,
          20.98,
          24.88,
          23.02,
          26.37,
          27.16,
          29.25,
          31.72,
          34.48,
          32.96,
          37.37,
          31.43,
          35.78,
          30.42,
          29.93,
          28.77,
          33.84,
          32.42,
          29.27,
          29.75,
          26.79,
          25.8,
          25.79,
          26.72,
          21.82,
          19.39,
          17.47,
          21.81,
          15.55,
          19.55,
          16.72,
          18.63,
          16.4,
          15.41,
          15.1,
          14.3,
          15.83,
          16.7,
          17.98,
          17.03,
          21.16,
          21.46,
          23.32,
          25.69,
          22.14,
          22.43,
          20.22,
          23.55,
          21.05,
          28.71,
          28.47,
          24.95,
          22.11,
          21.75,
          22.98,
          21.55,
          21.74,
          23.07,
          21.41,
          20.62,
          18.61,
          22.24,
          18.35,
          17.18,
          16.92,
          14.58,
          17.05,
          19.71,
          23.27,
          20.84,
          24.86,
          27.17,
          32.18,
          40.68,
          45.55,
          45.28,
          42.84,
          47.18,
          50.67,
          41.06,
          41.59,
          46.28,
          41.83,
          41.32,
          39.76,
          36.42,
          38.56,
          39.09,
          32.31,
          43.2,
          38.63,
          36.77,
          32.36,
          32.55,
          27.56,
          26.04,
          27.18,
          29.31,
          27.21,
          30.04,
          27.07,
          28.18,
          28.17,
          24.97,
          29.56,
          31.62,
          33.45,
          36.64,
          34.67,
          42.97,
          39.01,
          39.21,
          42.68,
          41.43,
          39.34,
          26.42,
          33.59,
          26.76,
          27.08,
          23.3,
          27.74,
          31.79,
          29.46,
          32.4,
          31.34,
          27.55,
          27.52,
          26.3,
          23.59,
          26.03,
          25.14,
          25.21,
          24.23,
          19.98,
          22.03,
          24.83,
          23.93,
          21.68,
          21.99,
          23.88,
          23.5,
          20.86,
          18.64,
          21.36,
          22.93,
          25.44,
          23.82,
          26.18,
          25.65,
          26.36,
          22.46,
          18.4,
          19.99,
          22.46,
          27.14,
          20.46,
          21.61,
          22.66,
          21.62,
          20.19,
          22.22,
          20.97,
          21.89,
          22.44,
          24.77,
          27.12,
          25.78,
          24.89,
          27.85,
          26.25,
          24.85,
          30.53,
          22.38,
          26.55,
          23.23,
          23.86,
          22.81,
          25.1,
          22.23,
          23.02,
          22.71,
          21.47,
          19.52,
          22.91,
          25.2,
          21.96,
          19.51,
          19.15,
          23.66,
          21.83,
          21.86,
          21.26,
          19.77,
          22.97,
          23.69,
          25.21,
          18.41,
          25.44,
          21.21,
          24.04,
          24.84,
          24.75,
          26.19,
          29.71,
          26.66,
          26.6,
          33.33,
          28.73,
          31.58,
          31.84,
          30.78,
          34.38,
          28.4,
          32.77,
          37.5,
          31.14,
          29.44,
          33.14,
          33.54,
          35.82,
          30.95,
          31.46,
          35.84,
          34.69,
          32.47,
          29.32,
          32.24,
          29.13,
          31.19,
          28.53,
          29.08,
          30.75,
          31.02,
          37.06,
          34.96,
          38.33,
          41.2,
          44.96,
          49.4,
          46.76,
          49.18,
          46.4,
          41.32,
          36.79,
          36.16,
          36.0,
          38.72,
          31.79,
          34.14,
          35.28,
          34.28,
          38.18,
          39.39,
          40.05,
          41.79,
          50.47,
          42.4,
          39.94,
          44.71,
          37.93,
          35.75,
          37.22,
          37.49,
          37.09,
          36.41,
          32.9,
          37.36,
          37.26,
          39.59,
          36.04,
          36.4,
          39.1,
          37.76,
          36.84,
          39.25,
          43.11,
          41.72,
          43.76,
          45.65,
          45.88,
          50.97,
          43.08,
          38.12,
          39.53,
          40.17,
          37.42,
          40.36,
          38.31,
          39.03,
          46.53,
          42.22,
          40.62,
          39.36,
          46.09,
          49.71,
          40.19,
          46.48,
          46.4,
          48.97,
          47.08,
          45.85,
          44.01,
          52.2,
          51.51,
          53.27,
          54.92,
          55.62,
          49.17,
          50.81,
          46.68,
          49.17,
          45.43,
          45.01,
          43.53,
          40.98,
          43.69,
          43.66,
          43.24,
          42.64,
          37.28,
          50.9,
          41.86,
          43.82,
          39.69,
          47.2,
          46.41,
          47.66,
          46.34,
          51.57,
          48.88,
          45.8,
          50.01,
          45.65,
          45.47,
          47.39,
          50.38,
          46.54,
          49.01,
          44.36,
          50.0,
          50.55,
          46.23,
          46.5,
          45.35,
          50.53,
          51.71,
          43.57,
          51.07,
          49.13,
          54.83,
          51.66,
          50.15,
          61.35,
          54.88,
          53.53,
          58.18,
          56.35,
          57.05,
          55.25,
          55.15,
          58.38,
          59.4,
          55.25,
          56.95,
          58.39,
          58.95,
          55.64,
          55.82,
          54.35,
          60.62,
          47.44,
          54.97,
          53.15,
          53.32,
          58.59,
          50.63,
          58.49,
          53.84,
          50.63,
          54.49,
          46.01,
          58.21,
          51.07,
          42.45,
          45.74,
          44.28,
          48.32,
          47.96,
          49.32,
          49.67,
          44.74,
          47.58,
          45.39,
          47.88,
          45.26,
          50.7,
          50.81,
          58.28,
          56.69,
          51.66,
          52.78,
          52.19,
          52.97,
          54.63,
          49.73,
          50.9,
          51.42,
          46.49,
          51.78,
          50.4,
          54.61,
          47.97,
          51.53,
          46.15,
          52.18,
          46.84,
          48.21,
          51.54,
          47.16,
          46.08,
          47.06,
          51.37,
          50.52,
          53.85,
          53.32,
          53.42,
          61.72,
          50.75,
          52.71,
          53.05,
          51.17,
          52.47,
          52.6,
          61.02,
          61.3,
          53.67,
          56.92,
          60.74,
          54.97,
          63.15,
          67.34,
          64.2,
          65.29,
          62.28,
          64.44,
          62.06,
          68.72,
          62.98,
          66.62,
          66.38,
          58.47,
          62.01,
          59.41,
          59.02,
          65.81,
          59.47,
          56.71,
          61.86,
          61.82,
          66.31,
          59.54,
          60.84,
          60.92,
          54.88,
          62.71,
          63.88,
          59.07,
          63.11,
          59.09,
          57.79,
          55.41,
          60.03,
          65.63,
          56.28,
          66.48,
          63.28,
          66.86,
          61.1,
          62.6,
          66.36,
          66.23,
          62.69,
          68.28,
          68.19,
          67.11,
          67.9,
          62.82,
          58.44,
          62.36,
          64.07,
          61.46,
          62.3,
          68.18,
          58.74,
          66.29,
          65.5,
          69.93,
          69.42,
          70.82,
          68.09,
          68.4,
          65.21,
          62.23,
          70.61,
          65.0,
          70.98,
          66.91,
          62.85,
          67.8,
          64.75,
          62.03,
          70.36,
          69.94,
          71.54,
          73.6,
          67.97,
          72.48,
          70.39,
          69.87,
          83.32,
          70.68,
          76.91,
          69.49,
          72.74,
          69.14,
          72.58,
          72.2,
          75.26,
          72.87,
          67.7,
          76.64,
          72.79,
          76.05,
          76.53,
          80.86,
          86.41,
          86.82,
          75.47,
          76.94,
          78.22,
          84.3,
          93.09,
          77.96,
          80.52,
          81.98,
          77.52,
          90.13,
          87.55,
          81.91,
          85.82,
          85.08,
          81.39,
          84.86,
          78.18,
          84.86,
          71.32,
          73.33,
          83.8,
          74.06,
          75.7,
          77.53,
          82.46,
          80.38,
          82.27,
          81.0,
          71.73,
          72.79,
          71.86,
          78.87,
          80.66,
          77.31,
          76.54,
          81.55,
          83.81,
          82.8,
          85.25,
          78.44,
          80.6,
          82.12,
          78.61,
          78.74,
          80.61,
          76.95,
          78.46,
          84.27,
          83.02,
          79.09,
          78.79,
          86.55,
          83.0,
          83.58,
          81.11,
          81.65,
          80.15,
          77.5,
          88.34,
          80.38,
          85.25,
          87.84,
          78.41,
          85.92,
          84.57,
          86.0,
          90.73,
          85.41,
          85.9,
          82.47,
          92.36,
          86.66,
          82.27,
          87.62,
          87.67,
          88.11,
          91.52,
          89.03,
          90.82,
          96.78,
          86.66,
          90.42,
          90.63,
          95.69,
          89.5,
          86.3,
          87.95,
          89.13,
          88.98,
          93.4,
          84.9,
          86.25,
          91.92,
          83.79,
          88.59,
          82.47,
          89.76,
          86.77,
          85.25,
          86.1,
          91.18,
          79.69,
          98.99,
          92.55,
          94.34,
          90.81,
          86.33,
          80.52,
          81.47,
          83.07,
          83.91,
          86.11,
          84.8,
          84.66
        ],
        [
          0.8292,
          0.6793,
          0.5354,
          0.8143,
          0.6939,
          0.623,
          0.7567,
          0.7982,
          0.8706,
          0.6982,
          0.7421,
          0.8493,
          0.8039,
          0.8742,
          0.8447,
          0.848,
          0.8136,
          0.8532,
          0.7915,
          0.8144,
          0.7883,
          0.8886,
          0.8514,
          0.6566,
          0.8923,
          0.9265,
          0.9554,
          1.034,
          0.9915,
          1.193,
          1.122,
          1.315,
          1.273,
          1.15,
          1.291,
          1.248,
          1.456,
          1.406,
          1.429,
          1.484,
          1.448,
          1.271,
          1.428,
          1.343,
          1.094,
          1.331,
          1.17,
          1.201,
          0.97,
          1.203,
          1.209,
          1.129,
          1.319,
          1.304,
          1.431,
          1.303,
          1.365,
          1.319,
          1.422,
          1.352,
          1.299,
          1.334,
          1.474,
          1.529,
          1.421,
          1.422,
          1.337,
          1.357,
          1.239,
          1.528,
          1.347,
          1.743,
          1.797,
          1.508,
          1.351,
          1.484,
          1.447,
          1.312,
          1.203,
          1.403,
          1.353,
          1.286,
          1.386,
          1.231,
          1.143,
          1.381,
          1.287,
          1.203,
          1.267,
          1.335,
          1.238,
          1.358,
          1.385,
          1.194,
          1.314,
          1.307,
          1.531,
          1.21,
          1.386,
          1.363,
          1.449,
          1.323,
          1.58,
          1.59,
          1.499,
          1.502,
          1.643,
          1.545,
          1.807,
          1.72,
          1.938,
          1.775,
          1.703,
          1.605,
          1.795,
          1.595,
          1.571,
          1.643,
          1.633,
          1.723,
          1.706,
          1.593,
          1.729,
          1.658,
          1.61,
          1.574,
          1.423,
          1.625,
          1.623,
          1.771,
          1.733,
          1.887,
          1.623,
          1.823,
          1.508,
          1.651,
          1.703,
          1.867,
          1.67,
          1.935,
          2.029,
          2.055,
          1.832,
          1.983,
          1.944,
          2.073,
          2.103,
          2.201,
          2.288,
          2.393,
          2.344,
          2.536,
          2.274,
          2.445,
          2.27,
          2.234,
          2.143,
          2.357,
          2.299,
          2.183,
          2.217,
          2.09,
          2.061,
          2.027,
          2.083,
          1.901,
          1.793,
          1.699,
          1.863,
          1.584,
          1.764,
          1.665,
          1.743,
          1.662,
          1.614,
          1.581,
          1.542,
          1.661,
          1.666,
          1.739,
          1.663,
          1.855,
          1.889,
          1.965,
          2.032,
          1.898,
          1.948,
          1.84,
          1.966,
          1.87,
          2.165,
          2.17,
          2.06,
          1.906,
          1.869,
          1.906,
          1.865,
          1.85,
          1.915,
          1.853,
          1.829,
          1.744,
          1.888,
          1.727,
          1.707,
          1.68,
          1.552,
          1.662,
          1.759,
          1.947,
          1.848,
          1.973,
          2.077,
          2.294,
          2.558,
          2.703,
          2.703,
          2.59,
          2.791,
          2.898,
          2.583,
          2.596,
          2.783,
          2.648,
          2.626,
          2.585,
          2.455,
          2.57,
          2.585,
          2.332,
          2.691,
          2.568,
          2.494,
          2.316,
          2.296,
          2.12,
          2.051,
          2.109,
          2.199,
          2.095,
          2.227,
          2.099,
          2.138,
          2.126,
          1.985,
          2.152,
          2.251,
          2.34,
          2.458,
          2.364,
          2.626,
          2.5,
          2.49,
          2.641,
          2.583,
          2.499,
          2.037,
          2.337,
          2.08,
          2.082,
          1.941,
          2.126,
          2.227,
          2.144,
          2.259,
          2.23,
          2.058,
          2.063,
          2.055,
          1.951,
          2.022,
          1.982,
          1.993,
          1.952,
          1.769,
          1.856,
          1.962,
          1.92,
          1.827,
          1.86,
          1.939,
          1.931,
          1.82,
          1.716,
          1.817,
          1.914,
          1.995,
          1.91,
          2.033,
          2.019,
          2.061,
          1.901,
          1.703,
          1.751,
          1.89,
          2.087,
          1.793,
          1.869,
          1.899,
          1.851,
          1.793,
          1.864,
          1.837,
          1.871,
          1.879,
          1.981,
          2.088,
          2.026,
          1.971,
          2.047,
          2.008,
          1.937,
          2.195,
          1.865,
          2.03,
          1.887,
          1.944,
          1.88,
          1.987,
          1.859,
          1.903,
          1.902,
          1.834,
          1.741,
          1.865,
          1.998,
          1.854,
          1.738,
          1.724,
          1.94,
          1.838,
          1.835,
          1.823,
          1.745,
          1.87,
          1.902,
          1.971,
          1.721,
          1.993,
          1.781,
          1.938,
          1.979,
          1.955,
          2.006,
          2.149,
          2.055,
          2.013,
          2.245,
          2.078,
          2.183,
          2.204,
          2.157,
          2.323,
          2.089,
          2.232,
          2.414,
          2.197,
          2.127,
          2.227,
          2.251,
          2.329,
          2.165,
          2.169,
          2.344,
          2.299,
          2.228,
          2.112,
          2.221,
          2.129,
          2.181,
          2.084,
          2.094,
          2.182,
          2.203,
          2.403,
          2.336,
          2.432,
          2.51,
          2.656,
          2.807,
          2.708,
          2.741,
          2.67,
          2.542,
          2.393,
          2.357,
          2.361,
          2.482,
          2.234,
          2.309,
          2.34,
          2.307,
          2.441,
          2.469,
          2.526,
          2.613,
          2.85,
          2.609,
          2.507,
          2.67,
          2.484,
          2.409,
          2.424,
          2.445,
          2.432,
          2.417,
          2.279,
          2.432,
          2.447,
          2.504,
          2.386,
          2.452,
          2.52,
          2.453,
          2.407,
          2.457,
          2.597,
          2.548,
          2.629,
          2.693,
          2.727,
          2.93,
          2.615,
          2.419,
          2.504,
          2.501,
          2.415,
          2.483,
          2.415,
          2.456,
          2.706,
          2.562,
          2.533,
          2.489,
          2.702,
          2.813,
          2.502,
          2.739,
          2.711,
          2.819,
          2.731,
          2.671,
          2.612,
          2.872,
          2.861,
          2.937,
          3.007,
          2.994,
          2.819,
          2.852,
          2.711,
          2.819,
          2.721,
          2.708,
          2.674,
          2.584,
          2.621,
          2.652,
          2.668,
          2.673,
          2.466,
          2.903,
          2.598,
          2.638,
          2.545,
          2.819,
          2.799,
          2.789,
          2.727,
          2.891,
          2.837,
          2.736,
          2.869,
          2.732,
          2.741,
          2.836,
          2.871,
          2.754,
          2.858,
          2.696,
          2.874,
          2.892,
          2.742,
          2.742,
          2.715,
          2.873,
          2.882,
          2.636,
          2.895,
          2.824,
          3.036,
          2.884,
          2.822,
          3.151,
          3.001,
          2.942,
          3.118,
          3.081,
          3.095,
          3.006,
          3.012,
          3.096,
          3.132,
          3.01,
          3.019,
          3.054,
          3.058,
          3.037,
          3.054,
          2.991,
          3.197,
          2.78,
          3.005,
          2.927,
          2.96,
          3.146,
          2.895,
          3.105,
          2.938,
          2.848,
          2.945,
          2.696,
          3.069,
          2.903,
          2.573,
          2.7,
          2.629,
          2.759,
          2.797,
          2.9,
          2.886,
          2.703,
          2.783,
          2.676,
          2.786,
          2.704,
          2.867,
          2.915,
          3.139,
          3.098,
          2.904,
          2.924,
          2.89,
          2.931,
          2.968,
          2.851,
          2.908,
          2.918,
          2.773,
          2.918,
          2.862,
          2.976,
          2.767,
          2.877,
          2.727,
          2.932,
          2.75,
          2.8,
          2.912,
          2.744,
          2.712,
          2.757,
          2.891,
          2.892,
          2.983,
          2.965,
          2.954,
          3.235,
          2.941,
          2.935,
          2.931,
          2.899,
          2.911,
          2.949,
          3.214,
          3.221,
          2.97,
          3.113,
          3.191,
          2.991,
          3.264,
          3.419,
          3.336,
          3.331,
          3.249,
          3.307,
          3.254,
          3.407,
          3.235,
          3.365,
          3.326,
          3.103,
          3.232,
          3.152,
          3.118,
          3.326,
          3.158,
          3.035,
          3.213,
          3.196,
          3.338,
          3.153,
          3.173,
          3.169,
          3.014,
          3.247,
          3.295,
          3.17,
          3.331,
          3.201,
          3.113,
          3.046,
          3.211,
          3.403,
          3.139,
          3.421,
          3.285,
          3.416,
          3.264,
          3.304,
          3.371,
          3.393,
          3.286,
          3.503,
          3.505,
          3.436,
          3.466,
          3.298,
          3.16,
          3.293,
          3.373,
          3.276,
          3.291,
          3.482,
          3.259,
          3.46,
          3.41,
          3.591,
          3.583,
          3.579,
          3.491,
          3.482,
          3.371,
          3.299,
          3.562,
          3.426,
          3.628,
          3.458,
          3.32,
          3.48,
          3.399,
          3.279,
          3.515,
          3.523,
          3.588,
          3.685,
          3.509,
          3.624,
          3.571,
          3.577,
          3.927,
          3.575,
          3.795,
          3.527,
          3.611,
          3.534,
          3.642,
          3.582,
          3.713,
          3.648,
          3.469,
          3.728,
          3.682,
          3.724,
          3.726,
          3.884,
          4.02,
          4.02,
          3.733,
          3.778,
          3.809,
          3.998,
          4.264,
          3.856,
          3.829,
          3.9,
          3.818,
          4.176,
          4.113,
          3.879,
          4.074,
          4.057,
          3.93,
          4.057,
          3.799,
          3.938,
          3.598,
          3.669,
          3.953,
          3.669,
          3.676,
          3.799,
          3.948,
          3.901,
          4.0,
          3.906,
          3.604,
          3.661,
          3.649,
          3.864,
          3.878,
          3.854,
          3.863,
          3.953,
          4.038,
          4.046,
          4.074,
          3.832,
          3.891,
          3.909,
          3.884,
          3.915,
          3.919,
          3.768,
          3.812,
          4.046,
          4.032,
          3.88,
          3.858,
          4.127,
          4.081,
          4.035,
          3.958,
          4.009,
          3.916,
          3.852,
          4.124,
          3.891,
          4.08,
          4.126,
          3.852,
          4.052,
          4.045,
          4.133,
          4.204,
          4.047,
          4.144,
          4.023,
          4.28,
          4.147,
          3.986,
          4.175,
          4.163,
          4.172,
          4.246,
          4.153,
          4.252,
          4.499,
          4.196,
          4.235,
          4.285,
          4.473,
          4.197,
          4.115,
          4.214,
          4.232,
          4.189,
          4.344,
          4.162,
          4.179,
          4.33,
          4.033,
          4.127,
          4.046,
          4.274,
          4.13,
          4.033,
          4.163,
          4.392,
          4.083,
          4.516,
          4.377,
          4.44,
          4.347,
          4.175,
          3.94,
          4.026,
          4.106,
          4.119,
          4.179,
          4.161,
          4.101
        ]
      ]
    }
  },
  "12965-003": {
    "reaction": {
      "0": {
        "x4_code": "(11-NA-23(N,A)9-F-20,,SIG)",
        "0": {
          "code": [
            "11-NA-23",
            [
              "N,A"
            ],
            "9-F-20,,SIG"
          ],
          "type": null,
          "target": "11-NA-23",
          "process": "N,A",
          "sf49": "9-F-20,,SIG",
          "sf4": "9-F-20",
          "sf5": null,
          "sf6": "SIG",
          "sf7": null,
          "sf8": null,
          "sf9": null
        },
        "type": null,
        "free_text": ""
      }
    },
    "extra_information": {
      "monitor": {
        "0": [
          {
            "x4_code": "(11-NA-23(N,A)9-F-20,,SIG)",
            "free_txt": [
              " NORMALIZED TO ENDF-IV",
              "   VALUES BETWEEN 8 AND 9 MEV"
            ]
          }
        ]
      }
    },
    "common": null,
    "data": {
      "heads": [
        "EN",
        "DATA",
        "DATA-ERR"
      ],
      "units": [
        "MEV",
        "MB",
        "MB"
      ],
      "data": [
        [
          5.731,
          5.759,
          5.783,
          5.797,
          5.821,
          5.836,
          5.841,
          5.845,
          5.85,
          5.86,
          5.87,
          5.875,
          5.88,
          5.909,
          5.914,
          5.919,
          5.924,
          5.929,
          5.939,
          5.954,
          5.964,
          5.969,
          5.974,
          5.994,
          5.999,
          6.004,
          6.009,
          6.029,
          6.035,
          6.04,
          6.096,
          6.101,
          6.112,
          6.117,
          6.127,
          6.132,
          6.153,
          6.201,
          6.206,
          6.217,
          6.228,
          6.233,
          6.244,
          6.255,
          6.265,
          6.271,
          6.287,
          6.292,
          6.314,
          6.319,
          6.33,
          6.336,
          6.341,
          6.347,
          6.352,
          6.358,
          6.363,
          6.369,
          6.375,
          6.386,
          6.397,
          6.402,
          6.408,
          6.413,
          6.425,
          6.436,
          6.441,
          6.447,
          6.453,
          6.458,
          6.464,
          6.47,
          6.475,
          6.487,
          6.498,
          6.504,
          6.509,
          6.515,
          6.527,
          6.532,
          6.538,
          6.544,
          6.55,
          6.555,
          6.561,
          6.579,
          6.584,
          6.59,
          6.596,
          6.602,
          6.608,
          6.613,
          6.619,
          6.631,
          6.637,
          6.643,
          6.649,
          6.655,
          6.661,
          6.667,
          6.672,
          6.678,
          6.684,
          6.69,
          6.696,
          6.702,
          6.708,
          6.714,
          6.72,
          6.726,
          6.732,
          6.738,
          6.744,
          6.75,
          6.756,
          6.762,
          6.768,
          6.774,
          6.781,
          6.786,
          6.793,
          6.799,
          6.811,
          6.817,
          6.823,
          6.829,
          6.835,
          6.842,
          6.848,
          6.854,
          6.86,
          6.866,
          6.873,
          6.879,
          6.885,
          6.891,
          6.897,
          6.904,
          6.91,
          6.916,
          6.922,
          6.929,
          6.935,
          6.941,
          6.948,
          6.954,
          6.96,
          6.967,
          6.973,
          6.979,
          6.986,
          6.992,
          6.998,
          7.005,
          7.011,
          7.017,
          7.024,
          7.03,
          7.037,
          7.043,
          7.049,
          7.056,
          7.062,
          7.069,
          7.075,
          7.082,
          7.088,
          7.095,
          7.101,
          7.108,
          7.114,
          7.121,
          7.127,
          7.134,
          7.141,
          7.147,
          7.154,
          7.16,
          7.167,
          7.173,
          7.18,
          7.187,
          7.193,
          7.2,
          7.207,
          7.213,
          7.22,
          7.227,
          7.233,
          7.24,
          7.247,
          7.253,
          7.26,
          7.267,
          7.274,
          7.28,
          7.287,
          7.294,
          7.301,
          7.307,
          7.314,
          7.321,
          7.328,
          7.335,
          7.342,
          7.349,
          7.355,
          7.362,
          7.369,
          7.376,
          7.383,
          7.39,
          7.397,
          7.404,
          7.411,
          7.418,
          7.425,
          7.432,
          7.439,
          7.446,
          7.453,
          7.46,
          7.467,
          7.474,
          7.481,
          7.488,
          7.495,
          7.502,
          7.509,
          7.516,
          7.523,
          7.53,
          7.537,
          7.544,
          7.552,
          7.559,
          7.566,
          7.573,
          7.58,
          7.587,
          7.594,
          7.602,
          7.609,
          7.616,
          7.623,
          7.631,
          7.638,
          7.645,
          7.653,
          7.66,
          7.667,
          7.674,
          7.682,
          7.689,
          7.696,
          7.704,
          7.711,
          7.719,
          7.726,
          7.733,
          7.741,
          7.748,
          7.756,
          7.763,
          7.771,
          7.778,
          7.785,
          7.793,
          7.8,
          7.808,
          7.815,
          7.823,
          7.83,
          7.838,
          7.846,
          7.853,
          7.861,
          7.868,
          7.876,
          7.884,
          7.891,
          7.899,
          7.906,
          7.914,
          7.922,
          7.929,
          7.937,
          7.945,
          7.953,
          7.96,
          7.968,
          7.976,
          7.984,
          7.991,
          7.999,
          8.007,
          8.015,
          8.023,
          8.03,
          8.038,
          8.046,
          8.054,
          8.062,
          8.07,
          8.078,
          8.086,
          8.094,
          8.101,
          8.109,
          8.117,
          8.125,
          8.133,
          8.141,
          8.149,
          8.157,
          8.165,
          8.173,
          8.181,
          8.189,
          8.198,
          8.206,
          8.214,
          8.222,
          8.23,
          8.238,
          8.246,
          8.255,
          8.263,
          8.271,
          8.279,
          8.287,
          8.295,
          8.304,
          8.312,
          8.32,
          8.328,
          8.337,
          8.345,
          8.353,
          8.362,
          8.37,
          8.378,
          8.387,
          8.395,
          8.403,
          8.412,
          8.42,
          8.429,
          8.437,
          8.446,
          8.454,
          8.463,
          8.471,
          8.479,
          8.488,
          8.497,
          8.505,
          8.514,
          8.522,
          8.531,
          8.539,
          8.548,
          8.557,
          8.565,
          8.574,
          8.583,
          8.591,
          8.6,
          8.609,
          8.617,
          8.626,
          8.635,
          8.644,
          8.652,
          8.661,
          8.67,
          8.679,
          8.688,
          8.696,
          8.705,
          8.714,
          8.723,
          8.732,
          8.741,
          8.75,
          8.759,
          8.767,
          8.776,
          8.785,
          8.794,
          8.803,
          8.812,
          8.821,
          8.83,
          8.839,
          8.849,
          8.858,
          8.867,
          8.876,
          8.885,
          8.894,
          8.903,
          8.912,
          8.922,
          8.931,
          8.94,
          8.949,
          8.958,
          8.968,
          8.977,
          8.986,
          8.995,
          9.005,
          9.014,
          9.023,
          9.033,
          9.042,
          9.052,
          9.061,
          9.07,
          9.08,
          9.089,
          9.099,
          9.108,
          9.118,
          9.127,
          9.137,
          9.146,
          9.156,
          9.165,
          9.175,
          9.184,
          9.194,
          9.204,
          9.213,
          9.223,
          9.233,
          9.242,
          9.252,
          9.262,
          9.271,
          9.281,
          9.291,
          9.301,
          9.31,
          9.32,
          9.33,
          9.34,
          9.35,
          9.359,
          9.369,
          9.379,
          9.389,
          9.399,
          9.409,
          9.419,
          9.429,
          9.439,
          9.449,
          9.459,
          9.469,
          9.479,
          9.489,
          9.499,
          9.509,
          9.519,
          9.53,
          9.54,
          9.55,
          9.56,
          9.57,
          9.581,
          9.591,
          9.601,
          9.611,
          9.622,
          9.632,
          9.642,
          9.653,
          9.663,
          9.673,
          9.684,
          9.694,
          9.705,
          9.715,
          9.725,
          9.736,
          9.746,
          9.757,
          9.767,
          9.778,
          9.788,
          9.799,
          9.81,
          9.82,
          9.831,
          9.841,
          9.852,
          9.863,
          9.873,
          9.884,
          9.895,
          9.906,
          9.916,
          9.927,
          9.938,
          9.949,
          9.96,
          9.97,
          9.981,
          9.992,
          10.0,
          10.01,
          10.02,
          10.04,
          10.05,
          10.06,
          10.07,
          10.08,
          10.09,
          10.1,
          10.11,
          10.12,
          10.14,
          10.15,
          10.16,
          10.17,
          10.18,
          10.19,
          10.2,
          10.21,
          10.23,
          10.24,
          10.25,
          10.26,
          10.27,
          10.28,
          10.29,
          10.3,
          10.32,
          10.33,
          10.34,
          10.35,
          10.36,
          10.37,
          10.39,
          10.4,
          10.41,
          10.42,
          10.43,
          10.44,
          10.45,
          10.47,
          10.48,
          10.49,
          10.5,
          10.51,
          10.52,
          10.54,
          10.55,
          10.56,
          10.57,
          10.58,
          10.6,
          10.61,
          10.62,
          10.63,
          10.64,
          10.66,
          10.67,
          10.68,
          10.69,
          10.7,
          10.72,
          10.73,
          10.74,
          10.75,
          10.76,
          10.78,
          10.79,
          10.8,
          10.81,
          10.83,
          10.84,
          10.85,
          10.86,
          10.88,
          10.89,
          10.9,
          10.91,
          10.93,
          10.94,
          10.95,
          10.96,
          10.98,
          10.99,
          11.0
        ],
        [
          0.218,
          0.2228,
          0.2262,
          0.2172,
          0.2231,
          0.4249,
          0.2197,
          0.222,
          0.2185,
          0.2101,
          0.2171,
          0.2162,
          0.2201,
          0.2207,
          0.2244,
          0.221,
          0.2121,
          0.4347,
          0.2164,
          0.2184,
          0.4317,
          0.2189,
          0.4383,
          0.2102,
          0.2174,
          0.4311,
          0.2202,
          0.2272,
          0.2184,
          0.2218,
          0.2172,
          0.2204,
          0.4352,
          0.213,
          0.2137,
          0.8368,
          0.2163,
          0.4342,
          0.2079,
          0.2172,
          0.2092,
          0.6296,
          0.4291,
          0.2138,
          0.4379,
          0.4431,
          0.4409,
          0.454,
          0.2259,
          0.2243,
          0.2164,
          1.091,
          0.8648,
          0.2194,
          0.22,
          0.4343,
          0.4432,
          0.6552,
          0.2168,
          0.4234,
          0.2147,
          0.4397,
          0.441,
          0.2163,
          0.4254,
          0.6464,
          0.4276,
          0.6373,
          0.4214,
          0.2181,
          0.6531,
          1.076,
          0.4351,
          0.2102,
          0.4256,
          0.4267,
          0.4148,
          0.8361,
          0.216,
          0.6357,
          0.2104,
          1.06,
          0.6332,
          0.6246,
          0.2094,
          0.4125,
          0.6313,
          0.6359,
          0.4256,
          0.2121,
          0.6296,
          0.2069,
          0.4291,
          0.2057,
          0.6372,
          1.071,
          1.301,
          0.4308,
          0.8334,
          0.6128,
          0.2131,
          0.4311,
          0.839,
          0.6469,
          0.4269,
          0.8473,
          0.8486,
          0.6291,
          0.2147,
          0.8562,
          0.2113,
          0.213,
          0.6507,
          1.068,
          1.463,
          0.8103,
          0.6186,
          0.8107,
          0.4236,
          0.416,
          0.8333,
          1.027,
          0.8293,
          1.057,
          1.876,
          1.058,
          1.5,
          1.469,
          1.654,
          2.249,
          2.141,
          1.892,
          1.651,
          1.655,
          1.496,
          2.077,
          2.483,
          3.765,
          3.291,
          3.484,
          2.88,
          4.379,
          3.206,
          4.626,
          3.213,
          2.731,
          1.917,
          2.711,
          2.284,
          2.321,
          4.495,
          2.676,
          3.285,
          3.864,
          3.895,
          2.694,
          3.699,
          4.908,
          4.991,
          5.587,
          4.01,
          4.0,
          4.383,
          5.491,
          6.15,
          3.696,
          3.492,
          3.044,
          4.377,
          3.932,
          5.823,
          5.167,
          5.414,
          5.702,
          5.182,
          4.746,
          6.345,
          6.949,
          5.743,
          5.935,
          8.704,
          7.76,
          7.688,
          4.894,
          7.324,
          5.305,
          8.262,
          6.455,
          7.436,
          10.16,
          11.7,
          10.54,
          12.97,
          11.95,
          10.19,
          9.693,
          8.239,
          6.576,
          8.203,
          8.666,
          7.527,
          7.611,
          10.24,
          12.4,
          11.25,
          11.94,
          17.2,
          16.31,
          19.73,
          14.52,
          17.23,
          12.66,
          11.4,
          15.5,
          19.35,
          14.19,
          20.65,
          15.67,
          14.51,
          15.36,
          13.16,
          15.06,
          15.42,
          14.34,
          15.26,
          19.33,
          16.79,
          16.13,
          13.76,
          16.36,
          17.97,
          12.71,
          13.07,
          21.48,
          15.96,
          19.36,
          21.31,
          23.32,
          23.24,
          23.8,
          21.68,
          21.57,
          22.67,
          25.72,
          25.19,
          19.92,
          21.03,
          22.47,
          22.56,
          22.02,
          24.61,
          22.33,
          20.76,
          25.28,
          21.56,
          17.89,
          21.54,
          21.35,
          20.67,
          23.29,
          21.49,
          22.34,
          24.4,
          19.16,
          20.09,
          20.98,
          19.57,
          19.19,
          22.09,
          24.46,
          23.55,
          22.0,
          23.48,
          28.55,
          21.94,
          27.36,
          25.99,
          29.44,
          30.78,
          27.16,
          29.01,
          27.28,
          25.56,
          28.35,
          29.59,
          26.31,
          25.58,
          27.35,
          24.34,
          26.86,
          26.9,
          33.98,
          30.74,
          34.36,
          31.3,
          32.52,
          34.92,
          39.09,
          38.7,
          37.46,
          39.13,
          39.02,
          42.53,
          44.04,
          47.4,
          43.35,
          44.4,
          41.57,
          41.0,
          43.91,
          46.85,
          49.46,
          41.09,
          39.76,
          41.47,
          43.68,
          41.88,
          41.07,
          38.73,
          42.2,
          37.37,
          37.27,
          43.15,
          36.71,
          35.53,
          36.35,
          36.54,
          34.92,
          40.67,
          37.04,
          38.93,
          39.25,
          40.22,
          43.5,
          40.15,
          43.08,
          46.36,
          42.62,
          39.58,
          48.14,
          45.29,
          38.32,
          44.79,
          43.51,
          49.77,
          45.49,
          48.33,
          44.8,
          50.08,
          52.23,
          50.79,
          49.73,
          54.18,
          57.04,
          51.02,
          51.18,
          53.7,
          53.61,
          55.61,
          57.01,
          54.87,
          52.45,
          54.85,
          56.51,
          49.62,
          50.07,
          54.93,
          46.29,
          52.82,
          55.18,
          57.06,
          52.57,
          60.1,
          54.19,
          57.89,
          56.52,
          55.38,
          68.14,
          59.76,
          61.52,
          62.52,
          55.1,
          60.72,
          56.15,
          54.01,
          54.52,
          59.92,
          69.73,
          66.81,
          65.1,
          64.67,
          57.68,
          60.01,
          65.02,
          59.18,
          66.39,
          61.25,
          58.13,
          60.72,
          64.05,
          56.64,
          58.38,
          60.65,
          67.47,
          64.45,
          59.91,
          59.96,
          71.94,
          60.88,
          68.06,
          69.91,
          60.58,
          61.9,
          67.85,
          58.73,
          61.45,
          62.15,
          68.03,
          73.15,
          66.66,
          67.26,
          71.69,
          83.82,
          79.82,
          77.72,
          77.28,
          78.26,
          87.13,
          84.03,
          81.12,
          95.97,
          80.65,
          79.06,
          82.62,
          84.09,
          85.04,
          78.81,
          78.4,
          79.17,
          84.37,
          87.28,
          83.39,
          95.13,
          80.91,
          86.95,
          81.42,
          86.15,
          85.08,
          73.69,
          79.0,
          75.08,
          75.28,
          74.56,
          71.2,
          71.82,
          72.61,
          69.38,
          69.72,
          70.9,
          65.98,
          73.11,
          63.59,
          65.83,
          77.6,
          72.26,
          72.91,
          70.92,
          74.42,
          72.89,
          74.81,
          73.86,
          78.36,
          70.19,
          86.05,
          84.69,
          81.9,
          71.81,
          86.31,
          84.94,
          88.38,
          84.67,
          91.68,
          88.12,
          94.71,
          93.73,
          82.64,
          89.2,
          83.08,
          91.6,
          95.44,
          91.12,
          92.84,
          94.99,
          90.79,
          85.2,
          86.5,
          94.57,
          93.71,
          94.72,
          86.46,
          88.88,
          90.23,
          82.93,
          85.51,
          79.7,
          81.8,
          83.38,
          85.14,
          81.61,
          86.36,
          89.65,
          86.91,
          88.42,
          89.49,
          87.83,
          90.51,
          93.47,
          90.54,
          95.17,
          98.26,
          104.4,
          103.4,
          97.78,
          91.96,
          93.33,
          94.09,
          94.05,
          93.72,
          90.97,
          91.84,
          95.57,
          98.78,
          100.5,
          96.52,
          87.1,
          103.5,
          98.77,
          96.16,
          86.97,
          95.74,
          87.05,
          87.13,
          87.75,
          95.93,
          103.2,
          96.82,
          98.98,
          101.2,
          94.31,
          93.63,
          93.63,
          101.8,
          107.0,
          93.67,
          107.5,
          113.1,
          104.7,
          118.3,
          109.0,
          101.8,
          101.7,
          98.04,
          113.1,
          117.7,
          108.0,
          104.6,
          117.1,
          105.5,
          105.6,
          104.7,
          104.3,
          102.5,
          99.22,
          101.8,
          104.0,
          96.58,
          97.09,
          87.45,
          103.0,
          95.01,
          96.68,
          95.9,
          97.64,
          105.0,
          118.9,
          103.4,
          103.7,
          102.6,
          105.6,
          108.2,
          97.81,
          96.47,
          96.96,
          111.8,
          108.6,
          99.71,
          102.8
        ],
        [
          0.2181,
          0.2229,
          0.2263,
          0.2172,
          0.2231,
          0.3006,
          0.2198,
          0.2221,
          0.2185,
          0.2102,
          0.2172,
          0.2162,
          0.2201,
          0.2207,
          0.2245,
          0.221,
          0.2121,
          0.3076,
          0.2164,
          0.2184,
          0.3054,
          0.219,
          0.3101,
          0.2103,
          0.2174,
          0.3049,
          0.2203,
          0.2272,
          0.2184,
          0.2218,
          0.2172,
          0.2204,
          0.3078,
          0.213,
          0.2137,
          0.4187,
          0.2164,
          0.3071,
          0.2079,
          0.2172,
          0.2092,
          0.3637,
          0.3036,
          0.2139,
          0.3098,
          0.3135,
          0.3119,
          0.3212,
          0.2259,
          0.2244,
          0.2165,
          0.4886,
          0.4328,
          0.2195,
          0.2201,
          0.3072,
          0.3135,
          0.3786,
          0.2169,
          0.2995,
          0.2147,
          0.3111,
          0.312,
          0.2163,
          0.3009,
          0.3734,
          0.3025,
          0.3682,
          0.2981,
          0.2182,
          0.3774,
          0.4818,
          0.3078,
          0.2102,
          0.3011,
          0.3019,
          0.2935,
          0.4184,
          0.2161,
          0.3673,
          0.2104,
          0.4747,
          0.3658,
          0.3609,
          0.2094,
          0.2918,
          0.3647,
          0.3674,
          0.3011,
          0.2122,
          0.3638,
          0.2069,
          0.3036,
          0.2057,
          0.3682,
          0.4797,
          0.5319,
          0.3048,
          0.4171,
          0.3541,
          0.2131,
          0.305,
          0.4199,
          0.3738,
          0.302,
          0.424,
          0.4247,
          0.3635,
          0.2147,
          0.4285,
          0.2113,
          0.213,
          0.3759,
          0.4784,
          0.5539,
          0.4055,
          0.3574,
          0.4057,
          0.2997,
          0.2943,
          0.417,
          0.4596,
          0.415,
          0.4731,
          0.6266,
          0.4735,
          0.5677,
          0.5561,
          0.5858,
          0.6799,
          0.6786,
          0.632,
          0.5849,
          0.5861,
          0.5663,
          0.6585,
          0.7186,
          0.8911,
          0.8257,
          0.8484,
          0.7722,
          0.9602,
          0.8308,
          0.9915,
          0.806,
          0.7598,
          0.6404,
          0.7543,
          0.6903,
          0.7016,
          0.9859,
          0.7445,
          0.8242,
          0.8902,
          0.8975,
          0.7494,
          0.8754,
          1.029,
          1.024,
          1.082,
          0.9241,
          0.9217,
          0.961,
          1.063,
          1.131,
          0.8747,
          0.8501,
          0.7887,
          0.9599,
          0.906,
          1.108,
          1.039,
          1.068,
          1.104,
          1.042,
          0.9949,
          1.148,
          1.219,
          1.112,
          1.129,
          1.373,
          1.287,
          1.275,
          1.026,
          1.266,
          1.067,
          1.318,
          1.168,
          1.267,
          1.483,
          1.584,
          1.508,
          1.699,
          1.619,
          1.488,
          1.445,
          1.331,
          1.19,
          1.326,
          1.383,
          1.302,
          1.297,
          1.511,
          1.651,
          1.58,
          1.647,
          1.986,
          1.905,
          2.113,
          1.803,
          1.976,
          1.672,
          1.586,
          1.872,
          2.084,
          1.774,
          2.203,
          1.892,
          1.801,
          1.842,
          1.683,
          1.818,
          1.836,
          1.781,
          1.842,
          2.105,
          1.989,
          1.896,
          1.72,
          1.912,
          1.988,
          1.664,
          1.671,
          2.158,
          1.863,
          2.074,
          2.171,
          2.293,
          2.284,
          2.32,
          2.21,
          2.187,
          2.28,
          2.416,
          2.416,
          2.112,
          2.153,
          2.228,
          2.247,
          2.224,
          2.38,
          2.278,
          2.169,
          2.415,
          2.209,
          1.991,
          2.218,
          2.221,
          2.182,
          2.333,
          2.225,
          2.235,
          2.369,
          2.111,
          2.178,
          2.204,
          2.133,
          2.091,
          2.232,
          2.386,
          2.371,
          2.29,
          2.331,
          2.566,
          2.238,
          2.534,
          2.464,
          2.629,
          2.693,
          2.535,
          2.649,
          2.526,
          2.432,
          2.597,
          2.643,
          2.485,
          2.456,
          2.524,
          2.364,
          2.496,
          2.501,
          2.809,
          2.66,
          2.851,
          2.701,
          2.792,
          2.844,
          3.011,
          2.995,
          2.97,
          3.03,
          3.064,
          3.236,
          3.296,
          3.384,
          3.225,
          3.259,
          3.151,
          3.131,
          3.213,
          3.306,
          3.393,
          3.146,
          3.1,
          3.143,
          3.261,
          3.159,
          3.121,
          3.007,
          3.184,
          3.008,
          2.991,
          3.212,
          2.909,
          2.862,
          2.888,
          2.887,
          2.845,
          3.116,
          2.903,
          3.008,
          2.993,
          3.037,
          3.23,
          3.15,
          3.248,
          3.354,
          3.188,
          3.019,
          3.395,
          3.29,
          3.0,
          3.307,
          3.273,
          3.518,
          3.29,
          3.396,
          3.245,
          3.465,
          3.531,
          3.516,
          3.5,
          3.656,
          3.764,
          3.526,
          3.507,
          3.609,
          3.58,
          3.664,
          3.726,
          3.67,
          3.549,
          3.653,
          3.736,
          3.425,
          3.45,
          3.639,
          3.312,
          3.598,
          3.692,
          3.761,
          3.557,
          3.891,
          3.697,
          3.756,
          3.679,
          3.672,
          4.09,
          3.855,
          3.941,
          3.96,
          3.673,
          3.921,
          3.734,
          3.61,
          3.669,
          3.909,
          4.276,
          4.125,
          4.051,
          4.043,
          3.805,
          3.868,
          4.025,
          3.86,
          4.077,
          3.896,
          3.794,
          3.902,
          4.003,
          3.746,
          3.813,
          3.842,
          4.123,
          4.01,
          3.861,
          3.858,
          4.263,
          3.859,
          4.129,
          4.216,
          3.894,
          3.961,
          4.238,
          3.874,
          3.926,
          3.938,
          4.195,
          4.399,
          4.223,
          4.208,
          4.313,
          4.741,
          4.627,
          4.523,
          4.499,
          4.57,
          4.836,
          4.812,
          4.711,
          5.164,
          4.674,
          4.576,
          4.668,
          4.772,
          4.831,
          4.606,
          4.559,
          4.62,
          4.861,
          4.933,
          4.78,
          5.249,
          4.78,
          4.933,
          4.691,
          4.845,
          4.759,
          4.418,
          4.645,
          4.557,
          4.587,
          4.483,
          4.345,
          4.393,
          4.418,
          4.261,
          4.275,
          4.341,
          4.173,
          4.486,
          4.121,
          4.179,
          4.599,
          4.437,
          4.447,
          4.348,
          4.518,
          4.424,
          4.48,
          4.473,
          4.622,
          4.309,
          4.892,
          4.855,
          4.7,
          4.394,
          4.957,
          4.846,
          4.94,
          4.861,
          5.067,
          4.944,
          5.181,
          5.139,
          4.808,
          5.044,
          4.884,
          5.128,
          5.169,
          5.046,
          5.158,
          5.269,
          5.087,
          4.837,
          4.958,
          5.246,
          5.205,
          5.242,
          4.898,
          4.95,
          5.033,
          4.777,
          4.858,
          4.64,
          4.692,
          4.838,
          4.902,
          4.807,
          5.0,
          5.026,
          4.888,
          4.957,
          5.034,
          5.007,
          5.047,
          5.208,
          5.135,
          5.267,
          5.397,
          5.623,
          5.542,
          5.281,
          5.087,
          5.139,
          5.235,
          5.302,
          5.202,
          5.054,
          5.094,
          5.295,
          5.433,
          5.431,
          5.265,
          5.032,
          5.684,
          5.44,
          5.327,
          5.047,
          5.277,
          5.004,
          5.01,
          4.982,
          5.303,
          5.531,
          5.287,
          5.373,
          5.462,
          5.298,
          5.237,
          5.21,
          5.573,
          5.725,
          5.26,
          5.734,
          5.873,
          5.647,
          6.085,
          5.759,
          5.524,
          5.509,
          5.418,
          6.021,
          6.135,
          5.739,
          5.707,
          6.154,
          5.663,
          5.652,
          5.695,
          5.67,
          5.531,
          5.48,
          5.641,
          5.678,
          5.434,
          5.36,
          4.985,
          5.611,
          5.378,
          5.361,
          5.257,
          5.42,
          5.835,
          6.248,
          5.654,
          5.667,
          5.666,
          5.766,
          5.793,
          5.387,
          5.371,
          5.477,
          5.979,
          5.852,
          5.539,
          5.602
        ]
      ]
    }
  }
}