{
  "bib": {
    "title": "On-Line Method For Separation Of Short-Lived Telluriumisotope From Fission Products.",
    "authors": [
      {
        "name": "M.Zendel"
      },
      {
        "name": "H.Ohm"
      },
      {
        "name": " E.Stender"
      },
      {
        "name": "N.Trautmann"
      }
    ],
    "institutes": [
      {
        "x4_code": "(2GERMNZ)",
        "free_txt": []
      }
    ],
    "references": {
      "0": [
        {
          "x4_code": "(P,MAINZ-76,10,1977)",
          "free_txt": [
            " In German"
          ],
          "publication_year": "1977"
        }
      ]
    },
    "facility": {
      "0": [
        {
          "x4_code": "(REAC,2GERMNZ)",
          "free_txt": [],
          "facility_type": "(REAC)",
          "insitute": "(2GERMNZ)"
        }
      ]
    },
    "history": [
      {
        "x4_code": "(20150521C)",
        "free_txt": [
          " M.M."
        ]
      },
      {
        "x4_code": "(20180429U)",
        "free_txt": [
          " SD: Year corrected in ref.(1976 -> 1977)."
        ]
      }
    ]
  },
  "23343-001": {
    "extra_information": {
      "correction": {
        "0": [
          {
            "x4_code": null,
            "free_txt": [
              " - For thermal neutrons peak .",
              " - Background.",
              " - Detection efficiency."
            ]
          }
        ]
      },
      "detector": {
        "0": [
          {
            "x4_code": "(GELI)",
            "free_txt": [
              " Ge(Li) detector for gamma-spectrum and HLs",
              "measurement."
            ]
          },
          {
            "x4_code": "(HE3SP)",
            "free_txt": [
              " He3 spectrometer to measure neutron spectrum."
            ]
          }
        ]
      },
      "facility": {
        "0": [
          {
            "x4_code": "(REAC,2GERMNZ)",
            "free_txt": []
          }
        ]
      },
      "method": {
        "0": [
          {
            "x4_code": "(GSPEC)",
            "free_txt": [
              " Gamma-spectrum was measured, dominate lines",
              "are 87.0, 266.5, 603.8 keV (Te-135) , 134.5, 332.8,",
              "577.8, 630.8 keV (Te-136); 243.0 keV (Te-137) ."
            ]
          }
        ]
      },
      "sample": {
        "0": [
          {
            "x4_code": null,
            "free_txt": [
              "Te-136 delayed neutron precursor was produced by",
              "fission of U-235 ."
            ]
          }
        ]
      }
    }
  },
  "23343-002": {
    "reaction": {
      "0": {
        "x4_code": "(52-TE-136(0,B-)53-I-136,,PN/DE,,REL)",
        "0": {
          "code": [
            "52-TE-136",
            [
              "0,B-"
            ],
            "53-I-136,,PN/DE,,REL"
          ],
          "type": null,
          "target": "52-TE-136",
          "process": "0,B-",
          "sf49": "53-I-136,,PN/DE,,REL",
          "sf4": "53-I-136",
          "sf5": null,
          "sf6": "PN/DE",
          "sf7": null,
          "sf8": "REL",
          "sf9": null
        },
        "type": null,
        "free_text": ""
      }
    },
    "extra_information": {
      "decay-data": {
        "0": [
          {
            "x4_code": "(52-TE-136,18.SEC)",
            "free_txt": []
          },
          {
            "x4_code": "(52-TE-137,3.3SEC)",
            "free_txt": []
          }
        ]
      },
      "en-sec": {
        "0": [
          {
            "x4_code": "(E,N)",
            "free_txt": [
              " Energy of delayed neutrons."
            ]
          }
        ]
      },
      "err-analys": {
        "0": [
          {
            "x4_code": "(E-ERR-DIG)",
            "free_txt": [
              " Digitizing error of E ( X scale)"
            ]
          },
          {
            "x4_code": "(ERR-DIG)",
            "free_txt": [
              "    Digitizing error of DATA ( Y scale)",
              "Quantization errors (one pixel):",
              "scale X - 1.29 keV, scale Y - 1.09 arb.units."
            ]
          }
        ]
      },
      "status": {
        "0": [
          {
            "x4_code": "(CURVE)",
            "free_txt": [
              " Fig.5 of P,MAINZ-76,10,1976"
            ]
          }
        ]
      }
    },
    "common": {
      "heads": [
        "E-ERR-DIG",
        "ERR-DIG"
      ],
      "units": [
        "KEV",
        "ARB-UNITS"
      ],
      "data": [
        [
          0.304
        ],
        [
          0.331
        ]
      ]
    },
    "data": {
      "heads": [
        "E-MIN",
        "E-MAX",
        "DATA"
      ],
      "units": [
        "KEV",
        "KEV",
        "ARB-UNITS"
      ],
      "data": [
        [
          null,
          8.16,
          11.41,
          16.69,
          20.93,
          24.78,
          29.39,
          34.03,
          37.98,
          40.6,
          44.45,
          48.91,
          53.33,
          57.02,
          61.92,
          66.7,
          68.83,
          73.44,
          77.41,
          82.3,
          85.76,
          89.69,
          93.71,
          96.89,
          99.84,
          108.91,
          112.67,
          117.66,
          120.15,
          129.32,
          135.97,
          141.26,
          144.6,
          147.9,
          152.44,
          156.94,
          160.8,
          163.43,
          168.59,
          171.73,
          178.82,
          184.11,
          188.69,
          191.91,
          194.47,
          198.32,
          202.79,
          207.18,
          210.98,
          214.89,
          220.69,
          223.17,
          226.82,
          231.75,
          236.81,
          240.74,
          243.49,
          247.62,
          252.32,
          255.03,
          260.31,
          264.2,
          268.03,
          271.82,
          276.21,
          280.48,
          284.69,
          291.74,
          295.71,
          299.54,
          303.93,
          308.4,
          312.46,
          316.47,
          320.28,
          324.08,
          327.97,
          331.84,
          336.9,
          340.76,
          344.1,
          347.42,
          355.27,
          359.29,
          362.64,
          367.19,
          372.13,
          376.38,
          379.53,
          383.51,
          387.37,
          391.65,
          396.39,
          400.99,
          404.89,
          408.82,
          411.72,
          416.21,
          421.58,
          425.26,
          429.99,
          433.47,
          436.95,
          440.29,
          443.71,
          446.4,
          452.19,
          455.97,
          461.71,
          465.69,
          469.19,
          472.13,
          475.02,
          479.1,
          484.28,
          488.05,
          492.44,
          500.68,
          503.13,
          507.44,
          511.82,
          516.33,
          520.85,
          527.32,
          532.58,
          535.29,
          539.21,
          543.09,
          548.23,
          552.16,
          556.08,
          559.81,
          563.44,
          567.14,
          571.07,
          578.96,
          583.51,
          588.06,
          592.0,
          599.05,
          603.46,
          608.57,
          611.84,
          616.38,
          620.93,
          624.21,
          626.81,
          630.72,
          635.29,
          639.88,
          645.07,
          648.25,
          651.38,
          657.14,
          659.13,
          663.06,
          667.53,
          671.9,
          677.62,
          684.76,
          688.67,
          695.12,
          699.68,
          702.96,
          706.8,
          711.89,
          715.68,
          719.43,
          723.14,
          726.96,
          730.92,
          734.85,
          739.93,
          743.71,
          746.93,
          751.47,
          755.35,
          759.3,
          763.95,
          768.52,
          772.33,
          775.48,
          779.34,
          783.9,
          787.82,
          792.37,
          800.1,
          803.27,
          808.38,
          810.88,
          814.63,
          824.27,
          827.49,
          831.93,
          836.47,
          841.12,
          843.79,
          847.71,
          850.97,
          862.52,
          867.57,
          872.68,
          879.18,
          883.09,
          887.58,
          890.81,
          895.29,
          899.71,
          903.52,
          907.39,
          911.26,
          915.07,
          922.85,
          927.4,
          931.86,
          935.72,
          938.34,
          945.44,
          951.29,
          963.48,
          966.57,
          970.37,
          974.9,
          979.48,
          983.36,
          987.17,
          994.9,
          998.19,
          1001.5,
          1014.95,
          1019.3,
          1024.4,
          1027.65,
          1030.85,
          1034.75,
          1039.3,
          1043.25,
          1054.2,
          1058.0,
          1065.15,
          1076.1,
          1078.6,
          1082.45,
          1086.95,
          1093.4,
          1102.4,
          1119.2,
          1126.15,
          1129.95,
          1135.75,
          1139.0,
          1142.9,
          1149.95,
          1154.45,
          1158.3,
          1162.15,
          1166.0,
          1173.7,
          1179.45,
          1185.25,
          1189.8,
          1194.3,
          1197.6
        ],
        [
          8.16,
          11.41,
          16.69,
          20.93,
          24.78,
          29.39,
          34.03,
          37.98,
          40.6,
          44.45,
          48.91,
          53.33,
          57.02,
          61.92,
          66.7,
          68.83,
          73.44,
          77.41,
          82.3,
          85.76,
          89.69,
          93.71,
          96.89,
          99.84,
          108.91,
          112.67,
          117.66,
          120.15,
          129.32,
          135.97,
          141.26,
          144.6,
          147.9,
          152.44,
          156.94,
          160.8,
          163.43,
          168.59,
          171.73,
          178.82,
          184.11,
          188.69,
          191.91,
          194.47,
          198.32,
          202.79,
          207.18,
          210.98,
          214.89,
          220.69,
          223.17,
          226.82,
          231.75,
          236.81,
          240.74,
          243.49,
          247.62,
          252.32,
          255.03,
          260.31,
          264.2,
          268.03,
          271.82,
          276.21,
          280.48,
          284.69,
          291.74,
          295.71,
          299.54,
          303.93,
          308.4,
          312.46,
          316.47,
          320.28,
          324.08,
          327.97,
          331.84,
          336.9,
          340.76,
          344.1,
          347.42,
          355.27,
          359.29,
          362.64,
          367.19,
          372.13,
          376.38,
          379.53,
          383.51,
          387.37,
          391.65,
          396.39,
          400.99,
          404.89,
          408.82,
          411.72,
          416.21,
          421.58,
          425.26,
          429.99,
          433.47,
          436.95,
          440.29,
          443.71,
          446.4,
          452.19,
          455.97,
          461.71,
          465.69,
          469.19,
          472.13,
          475.02,
          479.1,
          484.28,
          488.05,
          492.44,
          500.68,
          503.13,
          507.44,
          511.82,
          516.33,
          520.85,
          527.32,
          532.58,
          535.29,
          539.21,
          543.09,
          548.23,
          552.16,
          556.08,
          559.81,
          563.44,
          567.14,
          571.07,
          578.96,
          583.51,
          588.06,
          592.0,
          599.05,
          603.46,
          608.57,
          611.84,
          616.38,
          620.93,
          624.21,
          626.81,
          630.72,
          635.29,
          639.88,
          645.07,
          648.25,
          651.38,
          657.14,
          659.13,
          663.06,
          667.53,
          671.9,
          677.62,
          684.76,
          688.67,
          695.12,
          699.68,
          702.96,
          706.8,
          711.89,
          715.68,
          719.43,
          723.14,
          726.96,
          730.92,
          734.85,
          739.93,
          743.71,
          746.93,
          751.47,
          755.35,
          759.3,
          763.95,
          768.52,
          772.33,
          775.48,
          779.34,
          783.9,
          787.82,
          792.37,
          800.1,
          803.27,
          808.38,
          810.88,
          814.63,
          824.27,
          827.49,
          831.93,
          836.47,
          841.12,
          843.79,
          847.71,
          850.97,
          862.52,
          867.57,
          872.68,
          879.18,
          883.09,
          887.58,
          890.81,
          895.29,
          899.71,
          903.52,
          907.39,
          911.26,
          915.07,
          922.85,
          927.4,
          931.86,
          935.72,
          938.34,
          945.44,
          951.29,
          963.48,
          966.57,
          970.37,
          974.9,
          979.48,
          983.36,
          987.17,
          994.9,
          998.19,
          1001.5,
          1014.95,
          1019.3,
          1024.4,
          1027.65,
          1030.85,
          1034.75,
          1039.3,
          1043.25,
          1054.2,
          1058.0,
          1065.15,
          1076.1,
          1078.6,
          1082.45,
          1086.95,
          1093.4,
          1102.4,
          1119.2,
          1126.15,
          1129.95,
          1135.75,
          1139.0,
          1142.9,
          1149.95,
          1154.45,
          1158.3,
          1162.15,
          1166.0,
          1173.7,
          1179.45,
          1185.25,
          1189.8,
          1194.3,
          1197.6,
          null
        ],
        [
          0.0,
          120.02,
          224.1,
          304.33,
          320.61,
          307.62,
          280.53,
          256.7,
          245.88,
          242.64,
          249.16,
          255.68,
          279.01,
          317.5,
          370.63,
          447.62,
          532.18,
          642.76,
          727.33,
          734.93,
          639.56,
          472.63,
          346.9,
          250.99,
          210.36,
          228.81,
          244.0,
          285.76,
          274.39,
          225.64,
          193.15,
          173.66,
          147.1,
          144.41,
          132.51,
          144.44,
          133.07,
          124.42,
          127.15,
          152.1,
          120.69,
          101.19,
          90.37,
          99.05,
          94.73,
          100.16,
          108.31,
          142.47,
          128.4,
          124.08,
          126.27,
          159.88,
          197.84,
          239.05,
          230.39,
          210.89,
          167.55,
          113.37,
          93.87,
          63.53,
          46.21,
          50.56,
          55.99,
          72.27,
          99.38,
          160.11,
          203.49,
          170.44,
          162.87,
          179.15,
          203.56,
          188.94,
          135.3,
          130.97,
          152.67,
          150.52,
          144.03,
          148.38,
          173.33,
          147.32,
          128.91,
          109.97,
          78.01,
          53.09,
          25.47,
          39.58,
          97.59,
          131.2,
          120.93,
          92.76,
          118.25,
          173.55,
          264.62,
          373.58,
          483.62,
          586.08,
          596.38,
          590.44,
          514.03,
          421.92,
          428.98,
          326.56,
          330.36,
          282.13,
          253.95,
          240.97,
          257.25,
          267.02,
          273.55,
          224.79,
          171.68,
          90.39,
          50.84,
          14.54,
          33.53,
          50.34,
          74.22,
          94.29,
          117.61,
          166.95,
          161.01,
          164.28,
          154.54,
          150.23,
          113.38,
          98.22,
          92.28,
          88.5,
          95.57,
          61.44,
          73.92,
          108.07,
          155.79,
          166.64,
          130.89,
          104.9,
          113.05,
          89.22,
          81.11,
          98.48,
          113.67,
          111.52,
          96.9,
          93.12,
          77.42,
          74.18,
          66.06,
          56.86,
          44.42,
          22.76,
          27.11,
          37.42,
          54.23,
          46.67,
          32.04,
          26.09,
          42.37,
          71.66,
          68.98,
          46.78,
          50.59,
          39.77,
          27.32,
          21.91,
          31.69,
          43.09,
          55.57,
          81.6,
          109.8,
          93.55,
          75.14,
          68.65,
          96.31,
          101.21,
          93.63,
          88.23,
          84.99,
          56.82,
          29.2,
          31.93,
          48.2,
          54.18,
          48.23,
          33.61,
          25.5,
          15.77,
          22.29,
          32.06,
          36.41,
          55.94,
          75.47,
          60.33,
          76.06,
          79.87,
          60.92,
          30.04,
          20.29,
          8.93,
          6.25,
          18.2,
          43.15,
          27.46,
          17.18,
          10.69,
          21.0,
          6.39,
          30.25,
          35.15,
          49.79,
          28.13,
          45.49,
          48.76,
          22.23,
          31.46,
          37.98,
          29.32,
          22.84,
          17.44,
          0.0,
          28.35,
          46.25,
          50.06,
          35.98,
          22.99,
          26.26,
          39.29,
          24.68,
          10.06,
          0.0,
          33.97,
          38.87,
          43.76,
          37.81,
          43.79,
          31.34,
          14.01,
          7.54,
          13.53,
          11.38,
          0.0,
          10.36,
          14.7,
          18.51,
          10.41,
          18.02,
          0.0,
          10.53,
          34.4,
          29.0,
          24.68,
          22.53,
          25.26,
          14.99,
          24.76,
          28.57,
          24.24,
          20.47,
          45.43,
          37.87,
          28.13,
          33.57,
          24.37,
          8.67
        ]
      ]
    }
  }
}