{
  "entry": "23345",
  "last_updated": "2018-01-22",
  "number_of_revisions": "1",
  "histories": [
    {
      "x4_code": "(20170720C)",
      "free_txt": [
        " M.M."
      ]
    }
  ],
  "bib_record": {
    "title": "Energy spectra of beta-delayed neutrons from 92, 97, 98-Rb and 147-Cs .",
    "authors": [
      {
        "name": "A.Schroeder"
      },
      {
        "name": "W.Ziegert"
      },
      {
        "name": "K.-L.Kratz"
      },
      {
        "name": "G.Nyman"
      },
      {
        "name": "L.C.Carraz"
      },
      {
        "name": "P.G.Hansen"
      },
      {
        "name": "B.Jonson"
      },
      {
        "name": "H.L.Ravn) And Isolde Collaboratio"
      }
    ],
    "institutes": [
      {
        "x4_code": "(2ZZZCER)",
        "free_txt": [
          " L.C.Carraz,P.G.Hansen,B.Jonson,H.L.Ravn"
        ]
      },
      {
        "x4_code": "(2SWDCTH)",
        "free_txt": [
          " A.Schroeder,W.Ziegert,K.-L.Kratz,G.Nyman"
        ]
      }
    ],
    "references": {
      "0": [
        {
          "x4_code": "(P,MAINZ-78,27,1979)",
          "free_txt": [
            " In German."
          ],
          "publication_year": "1979"
        }
      ]
    },
    "facilities": {
      "0": [
        {
          "x4_code": "(SYNCY,2ZZZCER)",
          "free_txt": [
            " On-line mass-separator ISOLDE facility"
          ],
          "facility_type": "(SYNCY)",
          "institute": "(2ZZZCER)"
        },
        {
          "x4_code": "(OLMS,2ZZZCER)",
          "free_txt": [
            "  at CERN synchrocyclotron ."
          ],
          "facility_type": "(OLMS)",
          "institute": "(2ZZZCER)"
        }
      ]
    }
  },
  "data_tables": {
    "001": {
      "extra_information": {
        "correction": {
          "0": [
            {
              "x4_code": null,
              "free_txt": [
                "For thermal neutrons peak.",
                "For background.",
                "For detection efficiency."
              ]
            }
          ]
        },
        "facility": {
          "0": [
            {
              "x4_code": "(SYNCY,2ZZZCER)",
              "free_txt": [
                " On-line mass-separator ISOLDE facility"
              ]
            },
            {
              "x4_code": "(OLMS,2ZZZCER)",
              "free_txt": [
                "  at CERN synchrocyclotron ."
              ]
            }
          ]
        }
      }
    },
    "002": {
      "reaction": {
        "0": {
          "x4_code": "(37-RB-92(0,B-)38-SR-92,,PN/DE,,REL)",
          "0": {
            "code": [
              "37-RB-92",
              [
                "0,B-"
              ],
              "38-SR-92,,PN/DE,,REL"
            ],
            "type": null,
            "target": "37-RB-92",
            "process": "0,B-",
            "sf49": "38-SR-92,,PN/DE,,REL",
            "sf4": "38-SR-92",
            "sf5": null,
            "sf6": "PN/DE",
            "sf7": null,
            "sf8": "REL",
            "sf9": null
          },
          "type": null,
          "free_text": "Relative intensity of beta-delayed neutrons"
        }
      },
      "extra_information": {
        "decay-data": {
          "0": [
            {
              "x4_code": "(37-RB-92,4.5SEC)",
              "free_txt": []
            }
          ]
        },
        "en-sec": {
          "0": [
            {
              "x4_code": "(E,N)",
              "free_txt": [
                " Delayed neutron energy"
              ]
            }
          ]
        },
        "err-analys": {
          "0": [
            {
              "x4_code": null,
              "free_txt": [
                " Quantization errors (one pixel):",
                " scale X (energy) - 1.64 keV,",
                " scale Y (data) - 0.801 arb.units ."
              ]
            }
          ]
        },
        "status": {
          "0": [
            {
              "x4_code": "(CURVE)",
              "free_txt": [
                " Fig.16a of P,MAINZ-78,27,1979"
              ]
            }
          ]
        }
      },
      "common": {
        "heads": [
          "EN-ERR-DIG",
          "ERR-DIG"
        ],
        "units": [
          "KEV",
          "ARB-UNITS"
        ],
        "data": [
          [
            2.75
          ],
          [
            2.21
          ]
        ]
      },
      "data": {
        "heads": [
          "E-MIN",
          "E-MAX",
          "DATA"
        ],
        "units": [
          "KEV",
          "KEV",
          "ARB-UNITS"
        ],
        "data": [
          [
            3.64,
            6.63,
            9.33,
            12.79,
            16.21,
            19.76,
            23.48,
            28.14,
            32.84,
            36.56,
            40.17,
            46.63,
            49.98,
            54.82,
            58.65,
            61.03,
            65.02,
            69.58,
            73.42,
            77.74,
            82.73,
            89.85,
            95.04,
            99.48,
            103.53,
            106.67,
            110.92,
            116.11,
            120.46,
            124.04,
            127.71,
            132.13,
            137.13,
            141.07,
            145.18,
            149.52,
            152.8,
            157.61,
            162.47,
            164.82,
            168.94,
            172.47,
            177.54,
            180.93,
            185.24,
            189.38,
            192.64,
            197.63,
            201.62,
            205.58,
            210.55,
            213.09,
            217.32,
            222.43,
            225.83,
            229.35,
            233.72,
            237.98,
            241.27,
            244.35,
            252.45,
            257.59,
            262.73,
            266.77,
            270.63,
            273.82,
            278.91,
            282.38,
            287.31,
            288.92,
            293.81,
            297.87,
            302.9,
            306.32,
            310.48,
            314.76,
            319.67,
            322.85,
            326.25,
            328.88,
            334.69,
            338.64,
            342.8,
            347.97,
            350.47,
            355.29,
            358.57,
            361.98,
            365.38,
            369.63,
            373.7,
            377.63,
            380.09,
            383.5,
            387.59,
            393.47,
            398.73,
            402.05,
            405.25,
            411.75,
            416.69,
            421.68,
            426.61,
            429.95,
            433.28,
            437.34,
            439.82,
            444.76,
            448.79,
            452.97,
            457.12,
            461.19,
            465.38,
            470.31,
            473.49,
            480.07,
            485.06,
            489.97,
            493.27,
            497.43,
            499.92,
            508.89,
            512.94,
            517.04,
            520.22,
            525.18,
            528.63,
            532.88,
            537.84,
            540.28,
            548.49,
            552.51,
            556.62,
            559.14,
            562.5,
            566.57,
            571.38,
            574.68,
            580.55,
            585.51,
            588.72,
            594.45,
            598.61,
            604.36,
            606.76,
            611.63,
            615.71,
            619.89,
            625.71,
            629.03,
            632.36,
            637.26,
            638.83,
            643.72,
            647.9,
            652.08,
            660.27,
            663.54,
            667.62,
            671.72,
            676.66,
            683.23,
            687.23,
            695.42,
            697.97,
            708.63,
            719.31,
            726.67,
            729.9,
            734.83,
            739.01,
            742.31,
            745.54,
            750.51,
            754.6,
            761.13,
            767.7,
            775.09,
            784.93,
            794.76,
            807.03,
            812.79,
            816.96,
            823.57,
            829.31,
            832.55,
            835.85,
            840.76,
            843.99,
            847.26,
            851.4,
            855.52,
            860.36,
            865.25,
            868.58,
            875.14,
            879.19,
            883.3,
            886.63,
            889.97,
            896.53,
            903.08,
            908.82,
            916.22,
            922.77,
            929.34,
            932.63,
            937.49,
            942.42,
            945.76,
            949.08,
            954.0,
            958.06,
            970.37,
            975.29,
            978.56,
            981.87
          ],
          [
            6.63,
            9.33,
            12.79,
            16.21,
            19.76,
            23.48,
            28.14,
            32.84,
            36.56,
            40.17,
            46.63,
            49.98,
            54.82,
            58.65,
            61.03,
            65.02,
            69.58,
            73.42,
            77.74,
            82.73,
            89.85,
            95.04,
            99.48,
            103.53,
            106.67,
            110.92,
            116.11,
            120.46,
            124.04,
            127.71,
            132.13,
            137.13,
            141.07,
            145.18,
            149.52,
            152.8,
            157.61,
            162.47,
            164.82,
            168.94,
            172.47,
            177.54,
            180.93,
            185.24,
            189.38,
            192.64,
            197.63,
            201.62,
            205.58,
            210.55,
            213.09,
            217.32,
            222.43,
            225.83,
            229.35,
            233.72,
            237.98,
            241.27,
            244.35,
            252.45,
            257.59,
            262.73,
            266.77,
            270.63,
            273.82,
            278.91,
            282.38,
            287.31,
            288.92,
            293.81,
            297.87,
            302.9,
            306.32,
            310.48,
            314.76,
            319.67,
            322.85,
            326.25,
            328.88,
            334.69,
            338.64,
            342.8,
            347.97,
            350.47,
            355.29,
            358.57,
            361.98,
            365.38,
            369.63,
            373.7,
            377.63,
            380.09,
            383.5,
            387.59,
            393.47,
            398.73,
            402.05,
            405.25,
            411.75,
            416.69,
            421.68,
            426.61,
            429.95,
            433.28,
            437.34,
            439.82,
            444.76,
            448.79,
            452.97,
            457.12,
            461.19,
            465.38,
            470.31,
            473.49,
            480.07,
            485.06,
            489.97,
            493.27,
            497.43,
            499.92,
            508.89,
            512.94,
            517.04,
            520.22,
            525.18,
            528.63,
            532.88,
            537.84,
            540.28,
            548.49,
            552.51,
            556.62,
            559.14,
            562.5,
            566.57,
            571.38,
            574.68,
            580.55,
            585.51,
            588.72,
            594.45,
            598.61,
            604.36,
            606.76,
            611.63,
            615.71,
            619.89,
            625.71,
            629.03,
            632.36,
            637.26,
            638.83,
            643.72,
            647.9,
            652.08,
            660.27,
            663.54,
            667.62,
            671.72,
            676.66,
            683.23,
            687.23,
            695.42,
            697.97,
            708.63,
            719.31,
            726.67,
            729.9,
            734.83,
            739.01,
            742.31,
            745.54,
            750.51,
            754.6,
            761.13,
            767.7,
            775.09,
            784.93,
            794.76,
            807.03,
            812.79,
            816.96,
            823.57,
            829.31,
            832.55,
            835.85,
            840.76,
            843.99,
            847.26,
            851.4,
            855.52,
            860.36,
            865.25,
            868.58,
            875.14,
            879.19,
            883.3,
            886.63,
            889.97,
            896.53,
            903.08,
            908.82,
            916.22,
            922.77,
            929.34,
            932.63,
            937.49,
            942.42,
            945.76,
            949.08,
            954.0,
            958.06,
            970.37,
            975.29,
            978.56,
            981.87,
            988.44
          ],
          [
            44.15,
            84.27,
            125.99,
            175.72,
            221.86,
            254.36,
            276.42,
            289.67,
            308.53,
            343.85,
            377.54,
            359.51,
            366.75,
            371.57,
            404.47,
            498.73,
            536.44,
            551.29,
            572.96,
            519.63,
            447.07,
            441.08,
            408.61,
            393.78,
            415.86,
            413.06,
            395.43,
            375.79,
            359.76,
            333.31,
            303.25,
            290.42,
            291.64,
            311.7,
            290.88,
            278.05,
            290.89,
            294.52,
            298.94,
            309.38,
            296.56,
            275.73,
            274.13,
            260.11,
            245.69,
            254.13,
            247.72,
            246.13,
            262.99,
            265.01,
            258.2,
            252.6,
            239.38,
            226.97,
            220.16,
            195.31,
            181.29,
            173.28,
            179.7,
            202.58,
            193.38,
            172.55,
            161.33,
            180.59,
            195.85,
            193.05,
            172.22,
            167.41,
            170.23,
            171.85,
            175.07,
            177.5,
            159.86,
            157.87,
            152.66,
            131.83,
            153.1,
            147.89,
            135.88,
            121.85,
            128.69,
            141.54,
            119.9,
            107.47,
            114.31,
            120.74,
            115.13,
            103.12,
            97.51,
            83.09,
            100.75,
            107.18,
            101.57,
            88.75,
            103.21,
            70.34,
            54.31,
            64.75,
            66.77,
            72.41,
            64.8,
            62.41,
            63.63,
            54.01,
            56.43,
            60.05,
            52.45,
            58.48,
            61.7,
            48.88,
            55.31,
            51.71,
            43.71,
            51.74,
            56.17,
            48.98,
            47.38,
            49.81,
            44.2,
            41.81,
            39.42,
            50.67,
            45.88,
            52.3,
            58.73,
            47.12,
            34.3,
            26.29,
            29.51,
            27.12,
            31.56,
            36.38,
            31.18,
            27.18,
            21.98,
            30.82,
            36.04,
            28.84,
            18.84,
            22.86,
            28.48,
            24.49,
            20.5,
            24.12,
            27.34,
            32.57,
            29.78,
            22.18,
            18.18,
            15.79,
            12.99,
            17.01,
            24.64,
            21.45,
            12.64,
            11.06,
            13.08,
            13.9,
            15.92,
            14.33,
            11.94,
            14.36,
            25.62,
            16.01,
            13.22,
            15.27,
            12.89,
            17.72,
            20.14,
            16.95,
            8.94,
            13.76,
            15.38,
            8.98,
            16.22,
            13.03,
            14.66,
            12.28,
            14.72,
            13.95,
            19.6,
            12.4,
            8.41,
            6.02,
            9.24,
            11.26,
            7.26,
            11.69,
            15.71,
            12.91,
            8.52,
            11.74,
            19.38,
            17.38,
            12.19,
            16.62,
            19.44,
            16.24,
            12.24,
            9.45,
            11.08,
            11.9,
            11.12,
            9.54,
            11.97,
            7.98,
            12.0,
            16.03,
            10.43,
            7.63,
            6.44,
            7.66,
            10.49,
            7.72,
            10.54,
            8.54,
            7.36
          ]
        ]
      }
    },
    "003": {
      "reaction": {
        "0": {
          "x4_code": "(37-RB-97(0,B-)38-SR-97,,PN/DE,,REL)",
          "0": {
            "code": [
              "37-RB-97",
              [
                "0,B-"
              ],
              "38-SR-97,,PN/DE,,REL"
            ],
            "type": null,
            "target": "37-RB-97",
            "process": "0,B-",
            "sf49": "38-SR-97,,PN/DE,,REL",
            "sf4": "38-SR-97",
            "sf5": null,
            "sf6": "PN/DE",
            "sf7": null,
            "sf8": "REL",
            "sf9": null
          },
          "type": null,
          "free_text": "Relative intensity of beta-delayed neutrons"
        }
      },
      "extra_information": {
        "decay-data": {
          "0": [
            {
              "x4_code": "(37-RB-97,176.MSEC)",
              "free_txt": []
            }
          ]
        },
        "en-sec": {
          "0": [
            {
              "x4_code": "(E,N)",
              "free_txt": [
                " Delayed neutron energy"
              ]
            }
          ]
        },
        "err-analys": {
          "0": [
            {
              "x4_code": null,
              "free_txt": [
                " Quantization errors (one pixel):",
                " scale X (energy) - 2.12 keV,",
                " scale Y (data) - 27.1 arb.units ."
              ]
            }
          ]
        },
        "rel-ref": {
          "0": [
            {
              "x4_code": "(A,23242005,K.-L.Kratz+,P,MAINZ-76,37,1977)",
              "free_txt": []
            }
          ]
        },
        "status": {
          "0": [
            {
              "x4_code": "(CURVE)",
              "free_txt": [
                " Fig.16b of P,MAINZ-78,27,1979"
              ]
            }
          ]
        }
      },
      "common": {
        "heads": [
          "EN-ERR-DIG",
          "ERR-DIG"
        ],
        "units": [
          "KEV",
          "ARB-UNITS"
        ],
        "data": [
          [
            3.32
          ],
          [
            19.6
          ]
        ]
      },
      "data": {
        "heads": [
          "E-MIN",
          "E-MAX",
          "DATA"
        ],
        "units": [
          "KEV",
          "KEV",
          "ARB-UNITS"
        ],
        "data": [
          [
            8.87,
            12.14,
            16.58,
            22.05,
            26.37,
            30.66,
            36.01,
            46.61,
            56.14,
            60.41,
            64.71,
            69.04,
            72.31,
            74.5,
            79.85,
            85.15,
            92.53,
            102.09,
            110.6,
            116.93,
            121.15,
            128.56,
            132.82,
            139.2,
            147.69,
            154.1,
            157.33,
            163.73,
            170.1,
            175.35,
            178.48,
            183.7,
            190.03,
            193.21,
            198.54,
            201.76,
            210.22,
            213.37,
            219.72,
            225.06,
            229.36,
            232.56,
            241.01,
            246.31,
            251.62,
            254.84,
            260.21,
            263.47,
            267.77,
            273.07,
            277.26,
            282.5,
            287.75,
            300.47,
            306.79,
            312.01,
            318.29,
            324.6,
            337.32,
            343.69,
            350.03,
            353.16,
            357.35,
            362.61,
            363.64,
            369.96,
            375.24,
            387.94,
            393.26,
            397.51,
            402.81,
            403.91,
            408.21,
            412.48,
            416.76,
            419.97,
            425.28,
            429.5,
            433.65,
            439.92,
            444.13,
            448.35,
            452.57,
            456.78,
            464.2,
            469.51,
            471.64,
            479.07,
            487.52,
            493.87,
            498.11,
            500.23,
            504.44,
            508.68,
            517.14,
            524.54,
            528.75,
            535.06,
            543.52,
            550.92,
            557.23,
            564.62,
            572.0,
            579.41,
            584.71,
            590.02,
            595.33,
            600.67,
            608.13,
            613.46,
            626.15,
            635.64,
            644.09,
            652.55,
            663.16,
            673.76,
            677.95,
            682.15,
            685.31,
            694.82,
            699.05,
            703.27,
            709.62,
            726.57,
            732.91,
            742.44,
            761.51,
            764.68,
            767.85,
            773.15,
            778.43,
            786.88,
            793.24,
            798.53,
            808.05,
            814.39,
            819.67,
            826.02,
            832.36,
            839.77,
            845.1,
            850.42,
            858.91,
            865.27,
            874.8,
            880.07,
            890.65,
            897.01,
            902.3,
            906.52,
            913.9,
            921.26,
            931.84,
            939.25,
            948.78,
            959.36,
            967.82,
            978.39,
            985.79,
            992.16,
            997.45,
            1005.95,
            1013.3,
            1029.25,
            1037.65,
            1046.15,
            1050.35,
            1063.05,
            1071.55,
            1080.05,
            1103.3,
            1110.7,
            1116.0,
            1122.35,
            1130.85,
            1144.6,
            1165.8,
            1178.5,
            1189.1,
            1203.9,
            1216.6,
            1235.7,
            1243.05,
            1254.7,
            1275.9,
            1301.3,
            1312.95,
            1326.7,
            1332.05,
            1341.6,
            1392.4,
            1415.7,
            1455.95,
            1462.3,
            1472.9,
            1516.35,
            1524.8,
            1530.1,
            1542.8,
            1592.55,
            1634.95,
            1647.65,
            1658.25,
            1662.45,
            1669.9,
            1698.45,
            1754.6,
            1768.4,
            1776.85,
            1791.7,
            1803.35,
            1825.6,
            1837.2,
            1886.0,
            1938.9,
            1964.3
          ],
          [
            12.14,
            16.58,
            22.05,
            26.37,
            30.66,
            36.01,
            46.61,
            56.14,
            60.41,
            64.71,
            69.04,
            72.31,
            74.5,
            79.85,
            85.15,
            92.53,
            102.09,
            110.6,
            116.93,
            121.15,
            128.56,
            132.82,
            139.2,
            147.69,
            154.1,
            157.33,
            163.73,
            170.1,
            175.35,
            178.48,
            183.7,
            190.03,
            193.21,
            198.54,
            201.76,
            210.22,
            213.37,
            219.72,
            225.06,
            229.36,
            232.56,
            241.01,
            246.31,
            251.62,
            254.84,
            260.21,
            263.47,
            267.77,
            273.07,
            277.26,
            282.5,
            287.75,
            300.47,
            306.79,
            312.01,
            318.29,
            324.6,
            337.32,
            343.69,
            350.03,
            353.16,
            357.35,
            362.61,
            363.64,
            369.96,
            375.24,
            387.94,
            393.26,
            397.51,
            402.81,
            403.91,
            408.21,
            412.48,
            416.76,
            419.97,
            425.28,
            429.5,
            433.65,
            439.92,
            444.13,
            448.35,
            452.57,
            456.78,
            464.2,
            469.51,
            471.64,
            479.07,
            487.52,
            493.87,
            498.11,
            500.23,
            504.44,
            508.68,
            517.14,
            524.54,
            528.75,
            535.06,
            543.52,
            550.92,
            557.23,
            564.62,
            572.0,
            579.41,
            584.71,
            590.02,
            595.33,
            600.67,
            608.13,
            613.46,
            626.15,
            635.64,
            644.09,
            652.55,
            663.16,
            673.76,
            677.95,
            682.15,
            685.31,
            694.82,
            699.05,
            703.27,
            709.62,
            726.57,
            732.91,
            742.44,
            761.51,
            764.68,
            767.85,
            773.15,
            778.43,
            786.88,
            793.24,
            798.53,
            808.05,
            814.39,
            819.67,
            826.02,
            832.36,
            839.77,
            845.1,
            850.42,
            858.91,
            865.27,
            874.8,
            880.07,
            890.65,
            897.01,
            902.3,
            906.52,
            913.9,
            921.26,
            931.84,
            939.25,
            948.78,
            959.36,
            967.82,
            978.39,
            985.79,
            992.16,
            997.45,
            1005.95,
            1013.3,
            1029.25,
            1037.65,
            1046.15,
            1050.35,
            1063.05,
            1071.55,
            1080.05,
            1103.3,
            1110.7,
            1116.0,
            1122.35,
            1130.85,
            1144.6,
            1165.8,
            1178.5,
            1189.1,
            1203.9,
            1216.6,
            1235.7,
            1243.05,
            1254.7,
            1275.9,
            1301.3,
            1312.95,
            1326.7,
            1332.05,
            1341.6,
            1392.4,
            1415.7,
            1455.95,
            1462.3,
            1472.9,
            1516.35,
            1524.8,
            1530.1,
            1542.8,
            1592.55,
            1634.95,
            1647.65,
            1658.25,
            1662.45,
            1669.9,
            1698.45,
            1754.6,
            1768.4,
            1776.85,
            1791.7,
            1803.35,
            1825.6,
            1837.2,
            1886.0,
            1938.9,
            1964.3,
            2044.9
          ],
          [
            334.8,
            2284.6,
            4627.1,
            6157.1,
            6333.1,
            7186.1,
            7578.6,
            7294.2,
            7537.8,
            8065.9,
            8918.8,
            9988.5,
            10828.0,
            11559.0,
            11857.0,
            11626.5,
            11315.0,
            12086.5,
            11924.5,
            11734.5,
            11409.5,
            11640.0,
            12127.0,
            12018.5,
            12452.0,
            13237.0,
            13548.5,
            14212.0,
            13737.5,
            13277.5,
            12654.5,
            11774.0,
            11855.0,
            12112.5,
            12532.0,
            12884.0,
            12397.0,
            12207.0,
            12315.0,
            12911.0,
            13642.0,
            13547.5,
            13263.0,
            13398.0,
            13546.5,
            14332.5,
            15063.5,
            16106.0,
            16579.5,
            16092.5,
            15658.5,
            14819.5,
            14670.0,
            14805.5,
            14074.0,
            13261.5,
            12408.5,
            12232.0,
            12516.5,
            12706.0,
            12055.5,
            11717.0,
            11013.0,
            10878.0,
            10417.0,
            10038.0,
            10186.5,
            9902.3,
            10390.0,
            10254.0,
            10552.0,
            11148.0,
            11689.0,
            12109.5,
            12448.0,
            12921.5,
            12772.0,
            12393.0,
            10998.5,
            10592.5,
            10348.5,
            10185.5,
            9996.4,
            9779.4,
            9941.8,
            10131.5,
            10266.5,
            10172.0,
            10090.0,
            9846.6,
            10090.0,
            9927.8,
            9602.7,
            9738.0,
            9521.3,
            9385.8,
            8898.2,
            8478.3,
            8640.7,
            8044.8,
            7746.8,
            7354.0,
            7110.1,
            7231.9,
            7340.2,
            7285.9,
            7746.2,
            8247.2,
            8612.6,
            8856.3,
            8287.3,
            8002.9,
            7542.4,
            7785.9,
            8097.2,
            7677.4,
            7271.1,
            6918.9,
            6620.9,
            6539.6,
            6377.1,
            6214.4,
            6282.0,
            6146.4,
            6241.1,
            5943.0,
            6078.2,
            5969.9,
            5847.9,
            6023.9,
            5644.6,
            5414.3,
            5549.6,
            5414.1,
            5251.5,
            5075.4,
            4939.9,
            4831.4,
            4682.4,
            4858.4,
            5129.1,
            5548.7,
            5494.4,
            5616.1,
            5291.1,
            5060.8,
            5101.3,
            5182.4,
            4952.1,
            4803.1,
            4126.0,
            3787.3,
            3719.4,
            3611.0,
            3556.7,
            3380.5,
            3231.4,
            3001.1,
            3068.6,
            3122.8,
            2973.7,
            2878.9,
            2810.9,
            2892.0,
            2634.6,
            2539.7,
            2431.3,
            2336.3,
            2417.4,
            2268.2,
            2146.2,
            2037.7,
            2145.9,
            2078.1,
            1996.7,
            1928.8,
            1901.4,
            1820.0,
            1887.5,
            1846.7,
            1765.2,
            1629.6,
            1534.6,
            1466.7,
            1358.0,
            1235.8,
            1167.9,
            1343.8,
            1262.5,
            1329.7,
            1261.5,
            1152.7,
            1098.1,
            1152.2,
            1056.9,
            988.8,
            880.4,
            988.6,
            920.4,
            838.5,
            756.8,
            824.3,
            973.2,
            851.2,
            715.5,
            606.6,
            511.3,
            605.9,
            524.5,
            591.9,
            537.5,
            577.9,
            509.7,
            454.8,
            427.1,
            372.1
          ]
        ]
      }
    },
    "004": {
      "reaction": {
        "0": {
          "x4_code": "(37-RB-98(0,B-)38-SR-98,,PN/DE,,REL)",
          "0": {
            "code": [
              "37-RB-98",
              [
                "0,B-"
              ],
              "38-SR-98,,PN/DE,,REL"
            ],
            "type": null,
            "target": "37-RB-98",
            "process": "0,B-",
            "sf49": "38-SR-98,,PN/DE,,REL",
            "sf4": "38-SR-98",
            "sf5": null,
            "sf6": "PN/DE",
            "sf7": null,
            "sf8": "REL",
            "sf9": null
          },
          "type": null,
          "free_text": "Relative intensity of beta-delayed neutrons"
        }
      },
      "extra_information": {
        "decay-data": {
          "0": [
            {
              "x4_code": "(37-RB-98,112.MSEC)",
              "free_txt": []
            }
          ]
        },
        "en-sec": {
          "0": [
            {
              "x4_code": "(E,N)",
              "free_txt": [
                " Delayed neutron energy"
              ]
            }
          ]
        },
        "err-analys": {
          "0": [
            {
              "x4_code": null,
              "free_txt": [
                " Quantization errors (one pixel):",
                " scale X (energy) - 2.24 keV,",
                " scale Y (data) - 1.13 arb.units ."
              ]
            }
          ]
        },
        "status": {
          "0": [
            {
              "x4_code": "(CURVE)",
              "free_txt": [
                " Fig.16c of P,MAINZ-78,27,1979"
              ]
            }
          ]
        }
      },
      "common": {
        "heads": [
          "EN-ERR-DIG",
          "ERR-DIG"
        ],
        "units": [
          "KEV",
          "ARB-UNITS"
        ],
        "data": [
          [
            0.647
          ],
          [
            0.322
          ]
        ]
      },
      "data": {
        "heads": [
          "E-MIN",
          "E-MAX",
          "DATA"
        ],
        "units": [
          "KEV",
          "KEV",
          "ARB-UNITS"
        ],
        "data": [
          [
            0.0,
            0.11,
            2.23,
            6.58,
            17.78,
            29.0,
            32.26,
            36.63,
            41.12,
            46.84,
            59.14,
            65.69,
            69.02,
            72.45,
            78.11,
            81.55,
            87.11,
            91.43,
            95.87,
            99.35,
            101.62,
            104.84,
            110.36,
            113.67,
            118.0,
            122.41,
            126.94,
            132.55,
            136.01,
            140.65,
            144.01,
            149.58,
            151.75,
            153.95,
            157.37,
            160.79,
            166.37,
            170.8,
            175.38,
            182.16,
            187.75,
            194.43,
            198.81,
            203.28,
            207.7,
            213.34,
            218.06,
            223.67,
            226.84,
            231.3,
            235.66,
            239.94,
            243.49,
            247.06,
            252.6,
            256.97,
            260.33,
            263.74,
            267.05,
            270.44,
            273.89,
            278.34,
            282.76,
            288.39,
            295.19,
            299.74,
            304.18,
            308.59,
            312.1,
            315.64,
            324.61,
            331.29,
            335.79,
            339.18,
            344.88,
            349.34,
            351.54,
            356.07,
            359.34,
            364.96,
            367.38,
            371.94,
            381.95,
            386.42,
            389.85,
            393.26,
            398.93,
            403.37,
            407.82,
            412.37,
            415.79,
            422.63,
            427.25,
            431.81,
            437.4,
            443.0,
            448.59,
            454.22,
            459.9,
            464.38,
            468.84,
            472.3,
            476.78,
            481.13,
            487.9,
            490.3,
            498.24,
            503.84,
            509.46,
            516.24,
            519.66,
            523.05,
            528.66,
            536.47,
            540.93,
            546.52,
            549.89,
            554.45,
            558.85,
            562.09,
            567.77,
            571.23,
            574.7,
            579.24,
            583.79,
            590.56,
            596.07,
            600.52,
            603.97,
            608.55,
            613.01,
            616.33,
            621.94,
            626.41,
            628.61,
            633.1,
            636.44,
            642.21,
            649.11,
            653.56,
            659.19,
            663.63,
            669.12,
            673.62,
            677.08,
            682.72,
            691.68,
            693.87,
            696.04,
            701.64,
            706.08,
            709.41,
            715.1,
            718.55,
            723.17,
            726.59,
            732.1,
            736.51,
            743.22,
            747.69,
            753.37,
            758.0,
            763.56,
            767.94,
            772.47,
            774.86,
            778.3,
            784.96,
            793.89,
            798.33,
            802.76,
            806.2,
            810.79,
            818.63,
            824.21,
            828.71,
            833.14,
            837.57,
            840.87,
            846.47,
            852.07,
            856.56,
            860.08,
            864.64,
            867.89,
            882.4,
            888.09,
            895.99,
            902.77,
            907.22,
            911.67,
            915.09,
            920.63,
            923.91,
            928.54,
            934.23,
            937.59,
            940.91,
            945.26,
            949.76,
            954.31,
            961.02,
            965.51,
            972.25,
            976.79,
            981.22,
            987.88,
            990.25,
            994.83,
            1000.3,
            1008.1,
            1011.5,
            1018.3,
            1023.9,
            1028.35,
            1031.75,
            1036.35,
            1040.7,
            1043.95,
            1046.3,
            1050.85,
            1055.4,
            1057.55,
            1062.0,
            1065.4,
            1073.25,
            1077.7,
            1086.7,
            1096.8,
            1103.65,
            1108.05,
            1114.65,
            1120.25,
            1122.55,
            1127.05,
            1130.5,
            1136.05,
            1143.95,
            1151.75,
            1156.2,
            1161.9,
            1173.15,
            1177.65,
            1179.75,
            1183.15,
            1187.65,
            1192.15,
            1195.5,
            1201.1,
            1205.65,
            1210.15,
            1217.95,
            1222.45,
            1224.65,
            1231.4,
            1237.1,
            1244.95,
            1252.8,
            1257.25,
            1265.0,
            1270.65,
            1274.1,
            1278.55,
            1285.3,
            1287.5,
            1291.95,
            1297.6,
            1302.1,
            1306.6,
            1309.95,
            1316.7,
            1322.3,
            1329.0,
            1336.85,
            1349.2,
            1354.8,
            1362.65,
            1364.95,
            1370.55,
            1379.55,
            1385.1,
            1389.55,
            1395.15,
            1398.6,
            1405.3,
            1409.8,
            1413.1,
            1417.65,
            1424.45,
            1428.9,
            1433.35,
            1436.7,
            1444.5,
            1454.6,
            1459.15,
            1462.5,
            1473.75,
            1480.5,
            1483.9,
            1490.6,
            1492.8,
            1508.5,
            1513.05,
            1517.55,
            1521.95,
            1533.15,
            1538.8,
            1547.75,
            1562.25,
            1568.9,
            1573.45,
            1575.8,
            1582.5,
            1593.75,
            1611.65,
            1617.3,
            1621.8,
            1626.2,
            1634.05,
            1638.5,
            1643.05,
            1646.4,
            1650.85,
            1656.4,
            1659.75,
            1667.7,
            1673.35,
            1681.2,
            1687.9,
            1690.1,
            1694.6,
            1704.7,
            1709.15,
            1712.5,
            1715.85,
            1725.95,
            1729.35,
            1734.95,
            1742.85,
            1747.35,
            1752.9,
            1757.35,
            1765.25,
            1769.75,
            1777.55,
            1782.0,
            1786.5,
            1791.05,
            1800.0,
            1803.35,
            1808.95,
            1815.65,
            1825.75,
            1831.35,
            1835.85,
            1840.3,
            1843.75,
            1849.35,
            1852.7,
            1859.4,
            1866.1,
            1871.7,
            1875.15,
            1879.6,
            1884.05,
            1887.4,
            1891.95,
            1896.4,
            1899.7,
            1905.4,
            1912.15,
            1917.7,
            1927.75,
            1934.5,
            1939.0,
            1945.75,
            1953.55,
            1961.45,
            1965.95,
            1970.4,
            1976.0,
            1982.7,
            1988.35,
            1996.2,
            2006.3,
            2013.0,
            2028.7,
            2036.5,
            2044.4
          ],
          [
            0.11,
            2.23,
            6.58,
            17.78,
            29.0,
            32.26,
            36.63,
            41.12,
            46.84,
            59.14,
            65.69,
            69.02,
            72.45,
            78.11,
            81.55,
            87.11,
            91.43,
            95.87,
            99.35,
            101.62,
            104.84,
            110.36,
            113.67,
            118.0,
            122.41,
            126.94,
            132.55,
            136.01,
            140.65,
            144.01,
            149.58,
            151.75,
            153.95,
            157.37,
            160.79,
            166.37,
            170.8,
            175.38,
            182.16,
            187.75,
            194.43,
            198.81,
            203.28,
            207.7,
            213.34,
            218.06,
            223.67,
            226.84,
            231.3,
            235.66,
            239.94,
            243.49,
            247.06,
            252.6,
            256.97,
            260.33,
            263.74,
            267.05,
            270.44,
            273.89,
            278.34,
            282.76,
            288.39,
            295.19,
            299.74,
            304.18,
            308.59,
            312.1,
            315.64,
            324.61,
            331.29,
            335.79,
            339.18,
            344.88,
            349.34,
            351.54,
            356.07,
            359.34,
            364.96,
            367.38,
            371.94,
            381.95,
            386.42,
            389.85,
            393.26,
            398.93,
            403.37,
            407.82,
            412.37,
            415.79,
            422.63,
            427.25,
            431.81,
            437.4,
            443.0,
            448.59,
            454.22,
            459.9,
            464.38,
            468.84,
            472.3,
            476.78,
            481.13,
            487.9,
            490.3,
            498.24,
            503.84,
            509.46,
            516.24,
            519.66,
            523.05,
            528.66,
            536.47,
            540.93,
            546.52,
            549.89,
            554.45,
            558.85,
            562.09,
            567.77,
            571.23,
            574.7,
            579.24,
            583.79,
            590.56,
            596.07,
            600.52,
            603.97,
            608.55,
            613.01,
            616.33,
            621.94,
            626.41,
            628.61,
            633.1,
            636.44,
            642.21,
            649.11,
            653.56,
            659.19,
            663.63,
            669.12,
            673.62,
            677.08,
            682.72,
            691.68,
            693.87,
            696.04,
            701.64,
            706.08,
            709.41,
            715.1,
            718.55,
            723.17,
            726.59,
            732.1,
            736.51,
            743.22,
            747.69,
            753.37,
            758.0,
            763.56,
            767.94,
            772.47,
            774.86,
            778.3,
            784.96,
            793.89,
            798.33,
            802.76,
            806.2,
            810.79,
            818.63,
            824.21,
            828.71,
            833.14,
            837.57,
            840.87,
            846.47,
            852.07,
            856.56,
            860.08,
            864.64,
            867.89,
            882.4,
            888.09,
            895.99,
            902.77,
            907.22,
            911.67,
            915.09,
            920.63,
            923.91,
            928.54,
            934.23,
            937.59,
            940.91,
            945.26,
            949.76,
            954.31,
            961.02,
            965.51,
            972.25,
            976.79,
            981.22,
            987.88,
            990.25,
            994.83,
            1000.3,
            1008.1,
            1011.5,
            1018.3,
            1023.9,
            1028.35,
            1031.75,
            1036.35,
            1040.7,
            1043.95,
            1046.3,
            1050.85,
            1055.4,
            1057.55,
            1062.0,
            1065.4,
            1073.25,
            1077.7,
            1086.7,
            1096.8,
            1103.65,
            1108.05,
            1114.65,
            1120.25,
            1122.55,
            1127.05,
            1130.5,
            1136.05,
            1143.95,
            1151.75,
            1156.2,
            1161.9,
            1173.15,
            1177.65,
            1179.75,
            1183.15,
            1187.65,
            1192.15,
            1195.5,
            1201.1,
            1205.65,
            1210.15,
            1217.95,
            1222.45,
            1224.65,
            1231.4,
            1237.1,
            1244.95,
            1252.8,
            1257.25,
            1265.0,
            1270.65,
            1274.1,
            1278.55,
            1285.3,
            1287.5,
            1291.95,
            1297.6,
            1302.1,
            1306.6,
            1309.95,
            1316.7,
            1322.3,
            1329.0,
            1336.85,
            1349.2,
            1354.8,
            1362.65,
            1364.95,
            1370.55,
            1379.55,
            1385.1,
            1389.55,
            1395.15,
            1398.6,
            1405.3,
            1409.8,
            1413.1,
            1417.65,
            1424.45,
            1428.9,
            1433.35,
            1436.7,
            1444.5,
            1454.6,
            1459.15,
            1462.5,
            1473.75,
            1480.5,
            1483.9,
            1490.6,
            1492.8,
            1508.5,
            1513.05,
            1517.55,
            1521.95,
            1533.15,
            1538.8,
            1547.75,
            1562.25,
            1568.9,
            1573.45,
            1575.8,
            1582.5,
            1593.75,
            1611.65,
            1617.3,
            1621.8,
            1626.2,
            1634.05,
            1638.5,
            1643.05,
            1646.4,
            1650.85,
            1656.4,
            1659.75,
            1667.7,
            1673.35,
            1681.2,
            1687.9,
            1690.1,
            1694.6,
            1704.7,
            1709.15,
            1712.5,
            1715.85,
            1725.95,
            1729.35,
            1734.95,
            1742.85,
            1747.35,
            1752.9,
            1757.35,
            1765.25,
            1769.75,
            1777.55,
            1782.0,
            1786.5,
            1791.05,
            1800.0,
            1803.35,
            1808.95,
            1815.65,
            1825.75,
            1831.35,
            1835.85,
            1840.3,
            1843.75,
            1849.35,
            1852.7,
            1859.4,
            1866.1,
            1871.7,
            1875.15,
            1879.6,
            1884.05,
            1887.4,
            1891.95,
            1896.4,
            1899.7,
            1905.4,
            1912.15,
            1917.7,
            1927.75,
            1934.5,
            1939.0,
            1945.75,
            1953.55,
            1961.45,
            1965.95,
            1970.4,
            1976.0,
            1982.7,
            1988.35,
            1996.2,
            2006.3,
            2013.0,
            2028.7,
            2036.5,
            2044.4,
            2055.6
          ],
          [
            341.06,
            476.08,
            524.1,
            535.4,
            524.69,
            532.61,
            567.07,
            581.19,
            565.95,
            529.8,
            579.53,
            606.65,
            590.28,
            578.41,
            565.43,
            549.05,
            584.09,
            616.86,
            602.73,
            568.28,
            589.75,
            629.29,
            627.61,
            648.51,
            695.4,
            680.16,
            670.0,
            682.43,
            629.34,
            615.78,
            627.09,
            630.48,
            657.6,
            649.69,
            634.44,
            624.85,
            642.93,
            648.58,
            600.01,
            624.87,
            610.19,
            639.57,
            655.39,
            645.23,
            682.52,
            632.25,
            581.98,
            626.62,
            665.6,
            636.23,
            716.45,
            723.23,
            639.63,
            631.16,
            665.06,
            684.84,
            662.25,
            669.03,
            683.15,
            655.48,
            647.58,
            667.91,
            675.27,
            652.68,
            648.16,
            625.01,
            665.12,
            657.22,
            601.86,
            578.14,
            605.84,
            591.15,
            600.2,
            582.68,
            559.53,
            591.17,
            571.97,
            578.75,
            609.83,
            569.72,
            533.58,
            537.54,
            565.23,
            544.89,
            538.12,
            521.17,
            512.14,
            538.13,
            526.28,
            512.16,
            499.74,
            461.33,
            445.52,
            426.88,
            446.66,
            433.11,
            451.19,
            422.95,
            416.18,
            424.1,
            426.93,
            382.87,
            427.5,
            439.94,
            407.18,
            375.55,
            367.64,
            376.13,
            361.45,
            351.29,
            337.17,
            340.0,
            335.49,
            354.13,
            346.23,
            356.4,
            343.98,
            326.48,
            382.4,
            376.19,
            350.78,
            332.71,
            302.77,
            313.51,
            273.41,
            293.19,
            311.27,
            306.76,
            274.0,
            266.1,
            281.92,
            286.44,
            278.53,
            292.1,
            297.75,
            289.85,
            307.93,
            215.3,
            239.03,
            228.3,
            223.79,
            251.47,
            270.69,
            243.57,
            230.59,
            226.07,
            233.43,
            252.63,
            260.55,
            253.78,
            280.89,
            263.39,
            249.27,
            226.68,
            187.14,
            205.22,
            226.69,
            235.74,
            231.79,
            243.66,
            199.04,
            183.23,
            215.44,
            224.48,
            195.11,
            164.61,
            161.22,
            190.04,
            177.06,
            209.83,
            200.22,
            174.81,
            156.18,
            175.95,
            166.36,
            173.15,
            182.75,
            198.57,
            211.57,
            198.02,
            214.41,
            195.77,
            150.02,
            157.37,
            200.32,
            179.99,
            168.13,
            157.41,
            141.6,
            169.28,
            156.86,
            144.44,
            190.19,
            174.95,
            126.38,
            139.94,
            127.52,
            158.59,
            185.14,
            151.26,
            156.91,
            153.53,
            160.32,
            145.07,
            136.04,
            167.68,
            161.47,
            114.02,
            119.68,
            161.49,
            156.97,
            136.08,
            132.13,
            134.39,
            143.44,
            116.33,
            108.99,
            149.11,
            161.54,
            124.26,
            106.19,
            111.84,
            134.44,
            143.48,
            118.63,
            129.94,
            133.34,
            130.52,
            106.81,
            92.69,
            144.1,
            124.34,
            145.81,
            126.6,
            107.4,
            117.01,
            120.41,
            109.12,
            131.16,
            118.74,
            94.46,
            89.38,
            97.29,
            127.8,
            111.99,
            96.18,
            106.35,
            108.62,
            114.27,
            89.98,
            98.46,
            92.82,
            100.17,
            112.04,
            79.28,
            84.94,
            80.43,
            82.13,
            97.39,
            100.23,
            90.63,
            70.3,
            82.16,
            85.56,
            91.78,
            83.31,
            74.84,
            76.54,
            83.33,
            76.55,
            70.35,
            74.87,
            78.83,
            70.37,
            82.81,
            77.74,
            74.92,
            60.23,
            51.2,
            67.6,
            70.99,
            81.73,
            67.05,
            59.14,
            56.89,
            63.67,
            73.85,
            59.73,
            45.62,
            55.22,
            58.05,
            55.8,
            76.15,
            59.77,
            53.0,
            55.83,
            46.81,
            37.77,
            41.73,
            44.56,
            54.18,
            49.67,
            27.64,
            33.3,
            51.39,
            42.92,
            38.98,
            42.38,
            66.12,
            62.73,
            36.75,
            33.37,
            31.12,
            43.0,
            36.24,
            23.25,
            28.9,
            37.95,
            49.82,
            40.79,
            28.93,
            32.32,
            53.23,
            65.1,
            44.77,
            31.22,
            22.19,
            25.59,
            33.5,
            36.89,
            34.64,
            30.7,
            36.91,
            43.7,
            30.15,
            48.8,
            34.68,
            40.34,
            17.75,
            24.53,
            40.92,
            35.28,
            26.81,
            24.56,
            35.87,
            41.52,
            34.75,
            17.81,
            25.72,
            22.34,
            44.38,
            33.66,
            27.45,
            29.72,
            41.59,
            27.47,
            19.0,
            26.91,
            21.27,
            26.36,
            35.41,
            28.07,
            19.04,
            26.95,
            30.34,
            26.96,
            14.54,
            25.84,
            33.19,
            11.17,
            20.21,
            27.56,
            36.05,
            21.37,
            23.07,
            15.73,
            28.17,
            10.1,
            15.75,
            23.67,
            19.72,
            23.12,
            13.52,
            18.05,
            14.67,
            10.73,
            20.35,
            23.75,
            20.93
          ]
        ]
      }
    },
    "005": {
      "reaction": {
        "0": {
          "x4_code": "(55-CS-147(0,B-)56-BA-147,,PN/DE,,REL)",
          "0": {
            "code": [
              "55-CS-147",
              [
                "0,B-"
              ],
              "56-BA-147,,PN/DE,,REL"
            ],
            "type": null,
            "target": "55-CS-147",
            "process": "0,B-",
            "sf49": "56-BA-147,,PN/DE,,REL",
            "sf4": "56-BA-147",
            "sf5": null,
            "sf6": "PN/DE",
            "sf7": null,
            "sf8": "REL",
            "sf9": null
          },
          "type": null,
          "free_text": "Relative intensity of beta-delayed neutrons"
        }
      },
      "extra_information": {
        "decay-data": {
          "0": [
            {
              "x4_code": "(55-CS-147,218.MSEC)",
              "free_txt": []
            }
          ]
        },
        "en-sec": {
          "0": [
            {
              "x4_code": "(E,N)",
              "free_txt": [
                " Delayed neutron energy"
              ]
            }
          ]
        },
        "err-analys": {
          "0": [
            {
              "x4_code": null,
              "free_txt": [
                " Quantization errors (one pixel):",
                " scale X (energy) - 1.86 keV,",
                " scale Y (data) - 0.155 arb.units ."
              ]
            }
          ]
        },
        "status": {
          "0": [
            {
              "x4_code": "(CURVE)",
              "free_txt": [
                " Fig.16d of P,MAINZ-78,27,1979"
              ]
            }
          ]
        }
      },
      "common": {
        "heads": [
          "EN-ERR-DIG",
          "ERR-DIG"
        ],
        "units": [
          "KEV",
          "ARB-UNITS"
        ],
        "data": [
          [
            1.93
          ],
          [
            0.155
          ]
        ]
      },
      "data": {
        "heads": [
          "E-MIN",
          "E-MAX",
          "DATA"
        ],
        "units": [
          "KEV",
          "KEV",
          "ARB-UNITS"
        ],
        "data": [
          [
            null,
            8.89,
            15.28,
            16.58,
            19.43,
            28.95,
            34.69,
            37.98,
            41.27,
            45.44,
            50.03,
            53.45,
            58.21,
            61.42,
            69.79,
            74.08,
            78.46,
            83.1,
            89.64,
            93.04,
            97.78,
            101.54,
            105.85,
            109.76,
            115.51,
            118.65,
            120.77,
            125.1,
            131.99,
            136.03,
            143.5,
            149.01,
            152.89,
            157.54,
            161.42,
            164.82,
            169.79,
            172.27,
            175.57,
            180.16,
            184.72,
            192.69,
            200.12,
            203.43,
            207.7,
            212.09,
            215.36,
            218.82,
            223.34,
            227.05,
            230.51,
            236.04,
            241.36,
            247.57,
            254.09,
            259.41,
            263.75,
            268.46,
            271.85,
            276.86,
            280.56,
            285.38,
            288.13,
            291.7,
            297.07,
            300.66,
            306.3,
            310.47,
            315.82,
            319.93,
            323.68,
            329.38,
            331.21,
            335.92,
            340.23,
            343.51,
            348.15,
            349.55,
            354.33,
            358.7,
            367.02,
            371.02,
            375.87,
            379.41,
            383.24,
            387.09,
            391.52,
            395.12,
            398.05,
            403.12,
            407.05,
            412.81,
            415.78,
            418.55,
            422.87,
            427.63,
            429.94,
            434.31,
            438.0,
            443.49,
            444.52,
            448.68,
            453.78,
            458.18,
            462.03,
            467.53,
            473.19,
            477.87,
            481.62,
            484.71,
            490.03,
            498.95,
            503.17,
            508.35,
            511.71,
            516.31,
            519.17,
            521.54,
            525.89,
            530.62,
            534.06,
            538.77,
            541.75,
            547.24,
            550.12,
            554.93,
            557.07,
            561.62,
            564.47,
            568.46,
            571.96,
            576.81,
            581.46,
            585.56,
            592.49,
            601.06,
            607.0,
            611.62,
            616.46,
            621.17,
            624.47,
            628.46,
            634.25,
            642.61,
            648.96,
            651.84,
            655.09,
            661.59,
            668.65,
            674.06,
            676.67,
            681.01,
            687.97,
            693.14,
            695.31,
            699.88,
            706.84,
            712.41,
            715.68,
            719.8,
            724.51,
            727.44,
            731.94,
            735.43,
            738.92,
            742.72,
            747.41,
            751.13,
            755.01,
            760.59,
            767.1,
            772.59,
            777.89,
            782.3,
            787.8,
            789.97,
            794.28,
            799.96,
            806.11,
            810.4,
            814.88,
            819.37,
            823.86,
            827.14,
            831.03,
            835.0,
            839.56,
            841.83,
            846.63,
            850.62,
            855.87,
            859.59,
            863.19,
            867.86,
            871.09,
            874.29,
            882.17,
            887.0,
            890.14,
            894.52,
            898.55,
            903.08,
            906.82,
            911.47,
            912.82,
            916.88,
            920.96,
            925.51,
            930.47,
            934.95,
            938.85,
            942.89,
            947.25,
            951.8,
            954.77,
            958.39,
            962.11,
            965.38,
            970.5,
            974.68,
            979.32,
            982.85,
            986.91,
            990.63,
            997.79,
            1004.0,
            1006.45,
            1013.0,
            1017.0,
            1021.5,
            1025.5,
            1030.15,
            1037.7,
            1046.05,
            1049.7,
            1053.55,
            1056.5,
            1063.95,
            1069.55,
            1073.3,
            1075.9,
            1082.35,
            1085.1,
            1088.65,
            1092.35,
            1096.25,
            1100.7,
            1108.95,
            1117.7,
            1129.7,
            1132.9,
            1135.65,
            1144.1,
            1148.55,
            1153.4,
            1160.95,
            1164.75,
            1169.0,
            1173.0,
            1178.6,
            1181.05,
            1185.3,
            1192.7,
            1197.3,
            1201.5,
            1205.15,
            1209.45,
            1214.5,
            1215.25,
            1219.25,
            1222.95,
            1225.45,
            1229.7,
            1237.0,
            1241.0,
            1245.2,
            1248.55,
            1253.5,
            1257.35,
            1262.7,
            1265.6,
            1268.7,
            1274.05,
            1276.7,
            1279.8,
            1286.1,
            1288.85,
            1292.95,
            1300.6,
            1306.05,
            1310.45,
            1317.0,
            1319.6,
            1324.25,
            1328.65,
            1334.35,
            1337.25,
            1342.15,
            1352.6,
            1355.95,
            1360.5,
            1364.8,
            1368.25,
            1373.9,
            1382.4,
            1387.95,
            1394.4,
            1401.65,
            1407.1,
            1416.5,
            1421.1,
            1426.8,
            1433.15,
            1438.8,
            1446.45,
            1448.95,
            1456.75,
            1465.85,
            1478.4,
            1483.0,
            1487.05,
            1490.9,
            1492.55,
            1496.25,
            1501.8,
            1504.35,
            1510.2,
            1519.6,
            1524.1,
            1535.45,
            1542.0,
            1546.75,
            1550.6,
            1554.85,
            1558.45,
            1565.8,
            1571.1,
            1575.75,
            1578.8,
            1586.3,
            1589.7,
            1603.6,
            1607.55,
            1609.6,
            1617.0,
            1619.65,
            1625.65,
            1634.1,
            1638.2,
            1644.7,
            1650.15,
            1656.55,
            1663.0,
            1667.75,
            1671.05,
            1676.75,
            1680.05,
            1687.35,
            1692.0,
            1696.4,
            1701.05,
            1709.35,
            1733.45,
            1741.8,
            1750.3,
            1756.85,
            1761.4,
            1768.7,
            1777.05,
            1784.55,
            1788.4,
            1793.45,
            1797.0,
            1801.2,
            1803.95,
            1813.25,
            1817.9,
            1826.2
          ],
          [
            8.89,
            15.28,
            16.58,
            19.43,
            28.95,
            34.69,
            37.98,
            41.27,
            45.44,
            50.03,
            53.45,
            58.21,
            61.42,
            69.79,
            74.08,
            78.46,
            83.1,
            89.64,
            93.04,
            97.78,
            101.54,
            105.85,
            109.76,
            115.51,
            118.65,
            120.77,
            125.1,
            131.99,
            136.03,
            143.5,
            149.01,
            152.89,
            157.54,
            161.42,
            164.82,
            169.79,
            172.27,
            175.57,
            180.16,
            184.72,
            192.69,
            200.12,
            203.43,
            207.7,
            212.09,
            215.36,
            218.82,
            223.34,
            227.05,
            230.51,
            236.04,
            241.36,
            247.57,
            254.09,
            259.41,
            263.75,
            268.46,
            271.85,
            276.86,
            280.56,
            285.38,
            288.13,
            291.7,
            297.07,
            300.66,
            306.3,
            310.47,
            315.82,
            319.93,
            323.68,
            329.38,
            331.21,
            335.92,
            340.23,
            343.51,
            348.15,
            349.55,
            354.33,
            358.7,
            367.02,
            371.02,
            375.87,
            379.41,
            383.24,
            387.09,
            391.52,
            395.12,
            398.05,
            403.12,
            407.05,
            412.81,
            415.78,
            418.55,
            422.87,
            427.63,
            429.94,
            434.31,
            438.0,
            443.49,
            444.52,
            448.68,
            453.78,
            458.18,
            462.03,
            467.53,
            473.19,
            477.87,
            481.62,
            484.71,
            490.03,
            498.95,
            503.17,
            508.35,
            511.71,
            516.31,
            519.17,
            521.54,
            525.89,
            530.62,
            534.06,
            538.77,
            541.75,
            547.24,
            550.12,
            554.93,
            557.07,
            561.62,
            564.47,
            568.46,
            571.96,
            576.81,
            581.46,
            585.56,
            592.49,
            601.06,
            607.0,
            611.62,
            616.46,
            621.17,
            624.47,
            628.46,
            634.25,
            642.61,
            648.96,
            651.84,
            655.09,
            661.59,
            668.65,
            674.06,
            676.67,
            681.01,
            687.97,
            693.14,
            695.31,
            699.88,
            706.84,
            712.41,
            715.68,
            719.8,
            724.51,
            727.44,
            731.94,
            735.43,
            738.92,
            742.72,
            747.41,
            751.13,
            755.01,
            760.59,
            767.1,
            772.59,
            777.89,
            782.3,
            787.8,
            789.97,
            794.28,
            799.96,
            806.11,
            810.4,
            814.88,
            819.37,
            823.86,
            827.14,
            831.03,
            835.0,
            839.56,
            841.83,
            846.63,
            850.62,
            855.87,
            859.59,
            863.19,
            867.86,
            871.09,
            874.29,
            882.17,
            887.0,
            890.14,
            894.52,
            898.55,
            903.08,
            906.82,
            911.47,
            912.82,
            916.88,
            920.96,
            925.51,
            930.47,
            934.95,
            938.85,
            942.89,
            947.25,
            951.8,
            954.77,
            958.39,
            962.11,
            965.38,
            970.5,
            974.68,
            979.32,
            982.85,
            986.91,
            990.63,
            997.79,
            1004.0,
            1006.45,
            1013.0,
            1017.0,
            1021.5,
            1025.5,
            1030.15,
            1037.7,
            1046.05,
            1049.7,
            1053.55,
            1056.5,
            1063.95,
            1069.55,
            1073.3,
            1075.9,
            1082.35,
            1085.1,
            1088.65,
            1092.35,
            1096.25,
            1100.7,
            1108.95,
            1117.7,
            1129.7,
            1132.9,
            1135.65,
            1144.1,
            1148.55,
            1153.4,
            1160.95,
            1164.75,
            1169.0,
            1173.0,
            1178.6,
            1181.05,
            1185.3,
            1192.7,
            1197.3,
            1201.5,
            1205.15,
            1209.45,
            1214.5,
            1215.25,
            1219.25,
            1222.95,
            1225.45,
            1229.7,
            1237.0,
            1241.0,
            1245.2,
            1248.55,
            1253.5,
            1257.35,
            1262.7,
            1265.6,
            1268.7,
            1274.05,
            1276.7,
            1279.8,
            1286.1,
            1288.85,
            1292.95,
            1300.6,
            1306.05,
            1310.45,
            1317.0,
            1319.6,
            1324.25,
            1328.65,
            1334.35,
            1337.25,
            1342.15,
            1352.6,
            1355.95,
            1360.5,
            1364.8,
            1368.25,
            1373.9,
            1382.4,
            1387.95,
            1394.4,
            1401.65,
            1407.1,
            1416.5,
            1421.1,
            1426.8,
            1433.15,
            1438.8,
            1446.45,
            1448.95,
            1456.75,
            1465.85,
            1478.4,
            1483.0,
            1487.05,
            1490.9,
            1492.55,
            1496.25,
            1501.8,
            1504.35,
            1510.2,
            1519.6,
            1524.1,
            1535.45,
            1542.0,
            1546.75,
            1550.6,
            1554.85,
            1558.45,
            1565.8,
            1571.1,
            1575.75,
            1578.8,
            1586.3,
            1589.7,
            1603.6,
            1607.55,
            1609.6,
            1617.0,
            1619.65,
            1625.65,
            1634.1,
            1638.2,
            1644.7,
            1650.15,
            1656.55,
            1663.0,
            1667.75,
            1671.05,
            1676.75,
            1680.05,
            1687.35,
            1692.0,
            1696.4,
            1701.05,
            1709.35,
            1733.45,
            1741.8,
            1750.3,
            1756.85,
            1761.4,
            1768.7,
            1777.05,
            1784.55,
            1788.4,
            1793.45,
            1797.0,
            1801.2,
            1803.95,
            1813.25,
            1817.9,
            1826.2,
            null
          ],
          [
            5.627,
            9.351,
            20.686,
            32.955,
            38.775,
            37.447,
            41.949,
            46.605,
            51.106,
            54.909,
            50.479,
            49.465,
            52.804,
            57.146,
            53.26,
            50.692,
            48.749,
            50.607,
            49.672,
            44.854,
            51.529,
            62.709,
            62.395,
            66.274,
            65.649,
            56.018,
            53.529,
            67.115,
            60.899,
            56.313,
            61.666,
            55.294,
            65.077,
            71.984,
            68.332,
            66.386,
            57.377,
            61.102,
            66.534,
            60.319,
            48.199,
            53.473,
            48.344,
            46.166,
            58.745,
            58.197,
            50.972,
            53.456,
            48.946,
            53.526,
            61.056,
            52.742,
            56.854,
            47.529,
            40.38,
            43.172,
            51.867,
            44.486,
            45.959,
            51.159,
            45.951,
            54.491,
            62.099,
            52.0,
            58.442,
            83.522,
            76.53,
            58.275,
            55.865,
            48.563,
            39.706,
            51.041,
            56.163,
            52.432,
            49.868,
            44.971,
            49.784,
            53.587,
            52.418,
            48.53,
            52.098,
            53.648,
            55.896,
            50.613,
            41.214,
            36.24,
            37.48,
            34.216,
            40.115,
            42.13,
            27.294,
            28.688,
            47.557,
            45.38,
            41.648,
            47.703,
            49.875,
            42.727,
            32.784,
            41.323,
            51.572,
            49.317,
            43.334,
            44.728,
            45.889,
            43.867,
            47.202,
            44.868,
            47.816,
            50.532,
            43.148,
            44.23,
            35.529,
            37.311,
            45.775,
            36.606,
            30.394,
            29.07,
            25.416,
            30.617,
            37.214,
            32.009,
            24.006,
            30.526,
            42.56,
            33.704,
            30.985,
            32.068,
            15.292,
            20.336,
            28.255,
            24.29,
            28.48,
            31.272,
            36.391,
            35.298,
            26.363,
            18.207,
            12.999,
            19.675,
            22.235,
            24.716,
            26.264,
            25.015,
            23.769,
            26.796,
            32.15,
            26.865,
            25.539,
            24.215,
            22.506,
            18.695,
            14.265,
            11.543,
            19.695,
            27.067,
            28.383,
            27.06,
            20.379,
            17.657,
            21.693,
            20.291,
            19.201,
            16.403,
            15.235,
            17.794,
            16.315,
            17.867,
            19.339,
            18.324,
            19.484,
            16.762,
            15.128,
            12.327,
            13.878,
            18.224,
            24.744,
            20.234,
            18.523,
            13.86,
            15.487,
            11.368,
            12.762,
            20.371,
            15.941,
            8.404,
            14.46,
            15.854,
            17.637,
            20.817,
            11.807,
            4.115,
            10.092,
            21.27,
            18.317,
            11.869,
            10.076,
            15.199,
            16.671,
            10.378,
            5.483,
            8.663,
            5.864,
            8.813,
            13.626,
            15.331,
            20.142,
            13.926,
            9.107,
            10.969,
            12.441,
            17.174,
            24.005,
            15.615,
            10.643,
            13.901,
            10.792,
            5.819,
            2.709,
            14.511,
            19.476,
            11.165,
            9.22,
            11.079,
            4.551,
            6.101,
            14.64,
            7.957,
            2.673,
            6.087,
            7.947,
            6.156,
            9.8,
            6.534,
            8.162,
            9.557,
            11.262,
            9.703,
            11.64,
            10.242,
            8.296,
            9.923,
            8.057,
            6.579,
            8.129,
            9.912,
            4.781,
            8.192,
            11.911,
            6.625,
            2.818,
            6.23,
            4.595,
            3.27,
            8.469,
            4.892,
            10.636,
            14.36,
            16.22,
            14.509,
            10.778,
            6.891,
            10.692,
            6.727,
            2.997,
            4.78,
            14.64,
            11.453,
            10.675,
            0.654,
            10.592,
            12.608,
            2.897,
            10.579,
            8.869,
            1.41,
            3.116,
            7.073,
            5.129,
            3.415,
            7.142,
            9.157,
            3.252,
            6.823,
            8.993,
            3.475,
            7.357,
            11.39,
            11.54,
            9.285,
            7.571,
            9.432,
            5.313,
            9.426,
            17.886,
            11.67,
            3.281,
            0.0,
            7.385,
            9.712,
            5.592,
            3.726,
            1.47,
            5.348,
            3.556,
            5.182,
            3.469,
            1.444,
            1.283,
            3.297,
            1.273,
            5.153,
            0.0,
            7.782,
            1.489,
            3.426,
            7.923,
            1.082,
            0.0,
            1.072,
            5.417,
            3.707,
            1.22,
            3.39,
            1.058,
            0.0,
            5.63,
            1.354,
            3.522,
            6.078,
            3.744,
            8.167,
            6.3,
            1.638,
            3.497,
            1.007,
            0.0,
            1.001,
            3.637,
            1.303,
            0.0,
            0.979,
            3.617,
            3.924,
            3.687,
            1.432,
            10.899,
            3.829,
            1.572,
            3.897,
            0.0,
            1.403,
            0.0,
            3.648,
            8.303,
            6.126,
            1.307,
            3.554,
            1.299,
            0.0,
            1.29,
            0.0,
            1.188,
            0.0,
            3.738,
            0.0,
            1.478,
            0.0,
            1.388,
            0.0,
            4.098,
            6.89,
            1.529,
            0.0,
            1.444,
            0.0,
            1.123,
            0.0
          ]
        ]
      }
    }
  }
}