{
  "bib": {
    "title": "Energy spectra of delayed neutrons at beta- decay of cesium 141-146",
    "authors": [
      {
        "name": "H.Ohm"
      },
      {
        "name": "K.-L.Kratz"
      },
      {
        "name": "C.Ristori"
      },
      {
        "name": "J.Crancon"
      },
      {
        "name": "W.D.Wuensch"
      },
      {
        "name": "G.Jung"
      }
    ],
    "institutes": [
      {
        "x4_code": "(2FR ILL)",
        "free_txt": []
      }
    ],
    "references": {
      "0": [
        {
          "x4_code": "(P,MAINZ-77,59,1978)",
          "free_txt": [
            " In German"
          ],
          "publication_year": "1978"
        }
      ]
    },
    "facility": {
      "0": [
        {
          "x4_code": "(REAC,2FR ILL)",
          "free_txt": [
            "  On-line separator OSTIS"
          ],
          "facility_type": "(REAC)",
          "insitute": "(2FR ILL)"
        }
      ]
    },
    "history": [
      {
        "x4_code": "(20170625C)",
        "free_txt": [
          " M.M."
        ]
      }
    ]
  },
  "23344-001": {
    "extra_information": {
      "correction": {
        "0": [
          {
            "x4_code": null,
            "free_txt": [
              " - For thermal neutrons peak .",
              " - Background.",
              " - Detection efficiency."
            ]
          }
        ]
      },
      "facility": {
        "0": [
          {
            "x4_code": "(REAC,2FR ILL)",
            "free_txt": [
              "  On-line separator OSTIS"
            ]
          }
        ]
      }
    }
  },
  "23344-002": {
    "reaction": {
      "0": {
        "x4_code": "(55-CS-141(0,B-)56-BA-141,,PN/DE,,REL)",
        "0": {
          "code": [
            "55-CS-141",
            [
              "0,B-"
            ],
            "56-BA-141,,PN/DE,,REL"
          ],
          "type": null,
          "target": "55-CS-141",
          "process": "0,B-",
          "sf49": "56-BA-141,,PN/DE,,REL",
          "sf4": "56-BA-141",
          "sf5": null,
          "sf6": "PN/DE",
          "sf7": null,
          "sf8": "REL",
          "sf9": null
        },
        "type": null,
        "free_text": ""
      }
    },
    "extra_information": {
      "decay-data": {
        "0": [
          {
            "x4_code": "(55-CS-141,25.SEC)",
            "free_txt": []
          }
        ]
      },
      "en-sec": {
        "0": [
          {
            "x4_code": "(E,N)",
            "free_txt": [
              " Energy of delayed neutrons."
            ]
          }
        ]
      },
      "err-analys": {
        "0": [
          {
            "x4_code": "(E-ERR-DIG)",
            "free_txt": [
              " Digitizing error of E ( X scale)"
            ]
          },
          {
            "x4_code": "(ERR-DIG)",
            "free_txt": [
              "    Digitizing error of DATA ( Y scale)",
              "Quantization errors (one pixel):",
              "scale X - 0.870 keV, scale Y - 0.298 arb.units."
            ]
          }
        ]
      },
      "status": {
        "0": [
          {
            "x4_code": "(CURVE)",
            "free_txt": [
              " Fig.29a of P,MAINZ-77,59,197"
            ]
          }
        ]
      }
    },
    "common": {
      "heads": [
        "E-ERR-DIG",
        "ERR-DIG"
      ],
      "units": [
        "KEV",
        "ARB-UNITS"
      ],
      "data": [
        [
          0.553
        ],
        [
          0.236
        ]
      ]
    },
    "data": {
      "heads": [
        "E-MIN",
        "E-MAX",
        "DATA"
      ],
      "units": [
        "KEV",
        "KEV",
        "ARB-UNITS"
      ],
      "data": [
        [
          null,
          12.999,
          15.423,
          19.055,
          22.493,
          25.572,
          28.599,
          31.039,
          33.762,
          36.647,
          39.569,
          43.202,
          45.603,
          48.353,
          50.665,
          54.831,
          57.603,
          60.525,
          63.945,
          67.045,
          72.809,
          75.585,
          81.453,
          85.111,
          88.346,
          91.626,
          94.718,
          96.37,
          100.315,
          102.675,
          106.22,
          109.775,
          114.935,
          117.4,
          120.79,
          124.045,
          126.675,
          129.185,
          132.375,
          135.585,
          138.94,
          142.33,
          144.89,
          148.18,
          150.975,
          153.71,
          156.795,
          158.525,
          160.6,
          163.475,
          165.865,
          168.83,
          171.855,
          174.845,
          178.885,
          181.42,
          184.585,
          187.92,
          190.165,
          192.81,
          195.585,
          198.075,
          201.28,
          204.885,
          207.49,
          210.095,
          214.42,
          216.555,
          220.055,
          222.155,
          225.88,
          228.365,
          232.17,
          234.1,
          237.705,
          241.055,
          244.555,
          246.645,
          249.99,
          252.465,
          255.7,
          258.86,
          261.975,
          265.505,
          268.29,
          271.2,
          274.325,
          276.955,
          279.6,
          282.155,
          285.665,
          288.175,
          291.845,
          294.88,
          297.575,
          300.975,
          304.12,
          306.745,
          310.42,
          313.025,
          315.595,
          318.685,
          321.2,
          324.365,
          328.06,
          330.65,
          333.56,
          336.195,
          340.11,
          342.555,
          345.905,
          349.0,
          352.375,
          355.25,
          358.515,
          362.675,
          366.95,
          370.22,
          372.79,
          375.365,
          379.385,
          382.07,
          384.545,
          387.065,
          390.31,
          393.445,
          397.395,
          399.78,
          401.87,
          403.995,
          407.895,
          411.67,
          414.905,
          417.245,
          420.325,
          422.415,
          425.75,
          429.285,
          432.385,
          435.5,
          438.98,
          441.83,
          444.105,
          447.325,
          450.22,
          452.825,
          456.86,
          460.385,
          462.935,
          465.51,
          467.785,
          470.875,
          473.435,
          475.16,
          477.73,
          480.725,
          484.39,
          486.66,
          489.605,
          493.0,
          496.07,
          498.39,
          501.9,
          506.775,
          509.45,
          512.455,
          516.385,
          518.205,
          522.63,
          525.665,
          527.805,
          530.795,
          533.81,
          536.865,
          540.36,
          543.87,
          552.525,
          554.795,
          558.305,
          560.785,
          563.76,
          567.37,
          570.495,
          573.12,
          576.225,
          579.72,
          583.145,
          586.53,
          589.185,
          594.02,
          597.44,
          600.425,
          603.055,
          606.59,
          609.265,
          611.495,
          614.09,
          617.07,
          621.465,
          624.965,
          627.925,
          630.57,
          633.215,
          635.81,
          642.745,
          645.76,
          648.45,
          651.495,
          653.65,
          657.17,
          660.635,
          663.245,
          666.695,
          670.13,
          672.29,
          675.375,
          678.455,
          681.93,
          690.635,
          695.86,
          699.345,
          702.335,
          704.875,
          709.285,
          711.43,
          714.47,
          716.715,
          720.625,
          723.62,
          727.055,
          730.185,
          738.42,
          741.03,
          748.93,
          754.945,
          757.99,
          765.865,
          771.06,
          775.875,
          781.08,
          782.75,
          786.67,
          789.785
        ],
        [
          12.999,
          15.423,
          19.055,
          22.493,
          25.572,
          28.599,
          31.039,
          33.762,
          36.647,
          39.569,
          43.202,
          45.603,
          48.353,
          50.665,
          54.831,
          57.603,
          60.525,
          63.945,
          67.045,
          72.809,
          75.585,
          81.453,
          85.111,
          88.346,
          91.626,
          94.718,
          96.37,
          100.315,
          102.675,
          106.22,
          109.775,
          114.935,
          117.4,
          120.79,
          124.045,
          126.675,
          129.185,
          132.375,
          135.585,
          138.94,
          142.33,
          144.89,
          148.18,
          150.975,
          153.71,
          156.795,
          158.525,
          160.6,
          163.475,
          165.865,
          168.83,
          171.855,
          174.845,
          178.885,
          181.42,
          184.585,
          187.92,
          190.165,
          192.81,
          195.585,
          198.075,
          201.28,
          204.885,
          207.49,
          210.095,
          214.42,
          216.555,
          220.055,
          222.155,
          225.88,
          228.365,
          232.17,
          234.1,
          237.705,
          241.055,
          244.555,
          246.645,
          249.99,
          252.465,
          255.7,
          258.86,
          261.975,
          265.505,
          268.29,
          271.2,
          274.325,
          276.955,
          279.6,
          282.155,
          285.665,
          288.175,
          291.845,
          294.88,
          297.575,
          300.975,
          304.12,
          306.745,
          310.42,
          313.025,
          315.595,
          318.685,
          321.2,
          324.365,
          328.06,
          330.65,
          333.56,
          336.195,
          340.11,
          342.555,
          345.905,
          349.0,
          352.375,
          355.25,
          358.515,
          362.675,
          366.95,
          370.22,
          372.79,
          375.365,
          379.385,
          382.07,
          384.545,
          387.065,
          390.31,
          393.445,
          397.395,
          399.78,
          401.87,
          403.995,
          407.895,
          411.67,
          414.905,
          417.245,
          420.325,
          422.415,
          425.75,
          429.285,
          432.385,
          435.5,
          438.98,
          441.83,
          444.105,
          447.325,
          450.22,
          452.825,
          456.86,
          460.385,
          462.935,
          465.51,
          467.785,
          470.875,
          473.435,
          475.16,
          477.73,
          480.725,
          484.39,
          486.66,
          489.605,
          493.0,
          496.07,
          498.39,
          501.9,
          506.775,
          509.45,
          512.455,
          516.385,
          518.205,
          522.63,
          525.665,
          527.805,
          530.795,
          533.81,
          536.865,
          540.36,
          543.87,
          552.525,
          554.795,
          558.305,
          560.785,
          563.76,
          567.37,
          570.495,
          573.12,
          576.225,
          579.72,
          583.145,
          586.53,
          589.185,
          594.02,
          597.44,
          600.425,
          603.055,
          606.59,
          609.265,
          611.495,
          614.09,
          617.07,
          621.465,
          624.965,
          627.925,
          630.57,
          633.215,
          635.81,
          642.745,
          645.76,
          648.45,
          651.495,
          653.65,
          657.17,
          660.635,
          663.245,
          666.695,
          670.13,
          672.29,
          675.375,
          678.455,
          681.93,
          690.635,
          695.86,
          699.345,
          702.335,
          704.875,
          709.285,
          711.43,
          714.47,
          716.715,
          720.625,
          723.62,
          727.055,
          730.185,
          738.42,
          741.03,
          748.93,
          754.945,
          757.99,
          765.865,
          771.06,
          775.875,
          781.08,
          782.75,
          786.67,
          789.785,
          null
        ],
        [
          10.479,
          26.848,
          43.666,
          77.001,
          128.785,
          226.25,
          287.555,
          334.28,
          345.0,
          362.855,
          366.58,
          335.49,
          325.67,
          310.05,
          301.575,
          342.495,
          349.94,
          364.375,
          360.365,
          354.565,
          340.14,
          324.665,
          301.76,
          292.54,
          267.545,
          250.44,
          258.775,
          265.92,
          252.98,
          232.9,
          240.49,
          219.515,
          251.065,
          245.71,
          266.845,
          286.045,
          339.615,
          304.205,
          313.435,
          274.6,
          258.24,
          212.12,
          188.905,
          168.53,
          155.44,
          145.92,
          147.56,
          147.86,
          164.825,
          178.52,
          204.71,
          191.32,
          208.44,
          201.0,
          185.53,
          214.55,
          164.41,
          161.885,
          151.47,
          155.79,
          199.54,
          176.925,
          170.83,
          154.765,
          171.73,
          155.365,
          175.16,
          162.965,
          171.0,
          176.36,
          204.79,
          198.245,
          224.14,
          241.995,
          201.68,
          186.805,
          197.52,
          202.43,
          220.59,
          227.14,
          186.97,
          205.72,
          173.885,
          197.55,
          219.57,
          221.215,
          205.445,
          217.5,
          276.13,
          305.295,
          270.185,
          245.045,
          236.42,
          246.69,
          220.505,
          183.16,
          202.81,
          179.895,
          167.4,
          180.795,
          174.255,
          172.92,
          189.885,
          152.69,
          150.76,
          155.82,
          174.57,
          151.07,
          174.88,
          102.57,
          119.535,
          93.949,
          138.29,
          124.01,
          98.424,
          79.386,
          111.975,
          116.89,
          118.975,
          122.85,
          99.939,
          109.32,
          123.9,
          125.245,
          87.752,
          109.035,
          81.512,
          70.355,
          96.843,
          78.844,
          99.53,
          103.55,
          65.465,
          74.248,
          59.074,
          87.943,
          85.567,
          77.835,
          75.606,
          65.791,
          74.424,
          100.615,
          56.13,
          69.079,
          83.069,
          70.278,
          60.611,
          62.697,
          70.29,
          69.102,
          52.293,
          60.48,
          61.375,
          63.313,
          67.333,
          72.248,
          34.905,
          54.846,
          52.916,
          69.436,
          47.567,
          44.0,
          41.476,
          27.494,
          29.878,
          35.091,
          26.316,
          20.071,
          13.083,
          22.162,
          19.19,
          31.841,
          23.661,
          29.618,
          20.992,
          23.678,
          28.596,
          6.727,
          22.502,
          30.244,
          34.563,
          7.04,
          19.84,
          4.072,
          9.135,
          1.105,
          18.816,
          17.48,
          10.641,
          8.266,
          21.066,
          18.837,
          17.355,
          8.579,
          5.458,
          0.0,
          7.845,
          10.379,
          0.0,
          6.52,
          14.708,
          0.0,
          9.06,
          1.329,
          12.793,
          6.696,
          0.0,
          5.066,
          2.541,
          0.0,
          4.037,
          0.0,
          8.956,
          6.579,
          11.938,
          0.0,
          5.251,
          0.052,
          2.887,
          0.0,
          0.815,
          9.894,
          13.471,
          0.0,
          18.685,
          0.0,
          6.641,
          0.0,
          15.279,
          6.952,
          0.114,
          11.43,
          0.114,
          0.0,
          13.088,
          0.0,
          4.325,
          2.1,
          0.0,
          4.343,
          11.489,
          2.864,
          0.0
        ]
      ]
    }
  },
  "23344-003": {
    "reaction": {
      "0": {
        "x4_code": "(55-CS-142(0,B-)56-BA-142,,PN/DE,,REL)",
        "0": {
          "code": [
            "55-CS-142",
            [
              "0,B-"
            ],
            "56-BA-142,,PN/DE,,REL"
          ],
          "type": null,
          "target": "55-CS-142",
          "process": "0,B-",
          "sf49": "56-BA-142,,PN/DE,,REL",
          "sf4": "56-BA-142",
          "sf5": null,
          "sf6": "PN/DE",
          "sf7": null,
          "sf8": "REL",
          "sf9": null
        },
        "type": null,
        "free_text": ""
      }
    },
    "extra_information": {
      "decay-data": {
        "0": [
          {
            "x4_code": "(55-CS-142,1.61SEC)",
            "free_txt": []
          }
        ]
      },
      "en-sec": {
        "0": [
          {
            "x4_code": "(E,N)",
            "free_txt": [
              " Energy of delayed neutrons."
            ]
          }
        ]
      },
      "err-analys": {
        "0": [
          {
            "x4_code": "(E-ERR-DIG)",
            "free_txt": [
              " Digitizing error of E ( X scale)"
            ]
          },
          {
            "x4_code": "(ERR-DIG)",
            "free_txt": [
              "    Digitizing error of DATA ( Y scale)",
              "Quantization errors (one pixel):",
              "scale X - 0.923 keV, scale Y - 0.471 arb.units."
            ]
          }
        ]
      },
      "status": {
        "0": [
          {
            "x4_code": "(CURVE)",
            "free_txt": [
              " Fig.29b of P,MAINZ-77,59,197"
            ]
          }
        ]
      }
    },
    "common": {
      "heads": [
        "E-ERR-DIG",
        "ERR-DIG"
      ],
      "units": [
        "KEV",
        "ARB-UNITS"
      ],
      "data": [
        [
          0.415
        ],
        [
          0.342
        ]
      ]
    },
    "data": {
      "heads": [
        "E-MIN",
        "E-MAX",
        "DATA"
      ],
      "units": [
        "KEV",
        "KEV",
        "ARB-UNITS"
      ],
      "data": [
        [
          null,
          9.22,
          11.996,
          14.307,
          15.682,
          17.961,
          19.34,
          21.653,
          24.392,
          26.666,
          28.95,
          30.781,
          33.088,
          35.858,
          37.711,
          41.407,
          44.172,
          46.456,
          48.743,
          51.504,
          53.795,
          56.099,
          59.79,
          62.109,
          63.98,
          65.832,
          68.13,
          69.975,
          71.829,
          73.686,
          76.461,
          78.303,
          80.154,
          82.017,
          84.331,
          87.096,
          89.4,
          91.699,
          97.222,
          99.982,
          103.215,
          105.995,
          107.84,
          110.61,
          113.835,
          115.68,
          117.525,
          119.38,
          121.69,
          123.985,
          125.82,
          128.125,
          129.985,
          131.835,
          134.14,
          135.525,
          137.375,
          139.23,
          141.54,
          143.385,
          144.31,
          146.61,
          147.995,
          149.835,
          151.665,
          154.425,
          156.27,
          157.66,
          159.5,
          161.81,
          164.11,
          165.965,
          167.82,
          169.665,
          171.965,
          173.345,
          176.115,
          177.965,
          179.805,
          180.725,
          183.49,
          185.805,
          187.65,
          190.88,
          192.725,
          194.575,
          195.965,
          198.275,
          200.115,
          201.49,
          202.405,
          204.715,
          207.48,
          209.79,
          212.105,
          213.95,
          216.25,
          217.645,
          219.95,
          221.795,
          223.64,
          225.48,
          227.78,
          229.625,
          231.925,
          234.235,
          235.16,
          237.935,
          240.255,
          242.095,
          243.93,
          245.305,
          246.68,
          249.455,
          251.305,
          253.605,
          255.44,
          257.755,
          259.155,
          261.925,
          263.78,
          265.635,
          267.475,
          269.78,
          271.63,
          273.94,
          275.795,
          278.1,
          280.41,
          281.785,
          284.09,
          285.94,
          286.87,
          289.175,
          291.48,
          293.32,
          294.71,
          297.47,
          300.24,
          302.55,
          304.395,
          306.7,
          308.09,
          311.325,
          313.635,
          315.475,
          317.775,
          320.085,
          321.94,
          323.79,
          326.09,
          328.39,
          330.69,
          332.08,
          333.945,
          335.325,
          337.615,
          339.455,
          341.3,
          343.15,
          345.925,
          348.24,
          350.55,
          352.38,
          354.205,
          356.055,
          357.445,
          359.28,
          361.585,
          362.06,
          363.905,
          365.74,
          368.51,
          370.365,
          372.675,
          374.515,
          376.355,
          377.745,
          381.905,
          384.21,
          386.045,
          387.885,
          390.2,
          392.97,
          395.27,
          396.655,
          398.515,
          400.355,
          401.735,
          404.045,
          406.805,
          408.655,
          410.505,
          412.35,
          415.115,
          416.035,
          418.815,
          421.115,
          423.415,
          425.725,
          427.105,
          428.96,
          431.725,
          434.035,
          435.88,
          438.185,
          440.025,
          441.865,
          443.725,
          444.65,
          449.72,
          451.57,
          452.95,
          455.255,
          457.09,
          460.32,
          461.71,
          463.555,
          464.935,
          467.25,
          469.095,
          471.395,
          474.17,
          476.945,
          478.79,
          480.17,
          482.475,
          484.325,
          486.175,
          488.48,
          489.855,
          492.16,
          494.0,
          496.31,
          499.085,
          500.935,
          502.32,
          505.085,
          507.395,
          509.235,
          511.54,
          514.77,
          516.61,
          519.38,
          521.69,
          523.535,
          525.84,
          527.69,
          529.995,
          532.755,
          535.52,
          537.83,
          539.22,
          541.52,
          543.825,
          545.68,
          547.985,
          549.835,
          553.52,
          555.82,
          559.975,
          562.295,
          564.6,
          568.745,
          572.895,
          575.2,
          575.66,
          577.5,
          579.805,
          582.57,
          584.415,
          585.805,
          588.11,
          590.425,
          593.195,
          595.035,
          596.885,
          598.725,
          600.11,
          602.41,
          604.26,
          606.11,
          608.88,
          612.11,
          614.875,
          616.715,
          619.48,
          621.79,
          623.64,
          626.4,
          628.245,
          631.94,
          633.325,
          635.635,
          638.86,
          641.165,
          643.925,
          645.31,
          647.615,
          649.46,
          651.775,
          655.01,
          656.86,
          658.705,
          661.465,
          662.845,
          664.69,
          666.54,
          667.93,
          670.23,
          672.995,
          674.845,
          677.15,
          679.0,
          680.84,
          682.685,
          684.525,
          686.37,
          688.22,
          690.985,
          691.895,
          694.665,
          696.52,
          699.285,
          700.665,
          703.895,
          706.665,
          708.05,
          709.435,
          711.285,
          713.595,
          715.9,
          717.275,
          720.5,
          722.815,
          724.21,
          726.055,
          728.81,
          731.58,
          733.42,
          735.73,
          738.49,
          742.645,
          744.955,
          749.105,
          751.415,
          754.185,
          756.49,
          760.18,
          763.405,
          764.79,
          768.02,
          770.785,
          773.09,
          774.015,
          776.33,
          778.63,
          780.93,
          783.24,
          785.085,
          786.93,
          789.235,
          790.63,
          792.935,
          795.24,
          797.54,
          802.155,
          804.925,
          805.85,
          808.61,
          810.92,
          812.305,
          814.61,
          816.92,
          819.225,
          825.22,
          827.06,
          828.445,
          832.14,
          836.75,
          839.51,
          840.895,
          842.29,
          847.365,
          848.74,
          850.595,
          856.13,
          858.89,
          860.74,
          863.045,
          878.27,
          879.19,
          881.035,
          884.725,
          887.02,
          888.865,
          891.18,
          894.41,
          897.18,
          906.405,
          908.715,
          914.705,
          917.47,
          919.78,
          923.01,
          941.46,
          943.3,
          945.605,
          947.92
        ],
        [
          9.22,
          11.996,
          14.307,
          15.682,
          17.961,
          19.34,
          21.653,
          24.392,
          26.666,
          28.95,
          30.781,
          33.088,
          35.858,
          37.711,
          41.407,
          44.172,
          46.456,
          48.743,
          51.504,
          53.795,
          56.099,
          59.79,
          62.109,
          63.98,
          65.832,
          68.13,
          69.975,
          71.829,
          73.686,
          76.461,
          78.303,
          80.154,
          82.017,
          84.331,
          87.096,
          89.4,
          91.699,
          97.222,
          99.982,
          103.215,
          105.995,
          107.84,
          110.61,
          113.835,
          115.68,
          117.525,
          119.38,
          121.69,
          123.985,
          125.82,
          128.125,
          129.985,
          131.835,
          134.14,
          135.525,
          137.375,
          139.23,
          141.54,
          143.385,
          144.31,
          146.61,
          147.995,
          149.835,
          151.665,
          154.425,
          156.27,
          157.66,
          159.5,
          161.81,
          164.11,
          165.965,
          167.82,
          169.665,
          171.965,
          173.345,
          176.115,
          177.965,
          179.805,
          180.725,
          183.49,
          185.805,
          187.65,
          190.88,
          192.725,
          194.575,
          195.965,
          198.275,
          200.115,
          201.49,
          202.405,
          204.715,
          207.48,
          209.79,
          212.105,
          213.95,
          216.25,
          217.645,
          219.95,
          221.795,
          223.64,
          225.48,
          227.78,
          229.625,
          231.925,
          234.235,
          235.16,
          237.935,
          240.255,
          242.095,
          243.93,
          245.305,
          246.68,
          249.455,
          251.305,
          253.605,
          255.44,
          257.755,
          259.155,
          261.925,
          263.78,
          265.635,
          267.475,
          269.78,
          271.63,
          273.94,
          275.795,
          278.1,
          280.41,
          281.785,
          284.09,
          285.94,
          286.87,
          289.175,
          291.48,
          293.32,
          294.71,
          297.47,
          300.24,
          302.55,
          304.395,
          306.7,
          308.09,
          311.325,
          313.635,
          315.475,
          317.775,
          320.085,
          321.94,
          323.79,
          326.09,
          328.39,
          330.69,
          332.08,
          333.945,
          335.325,
          337.615,
          339.455,
          341.3,
          343.15,
          345.925,
          348.24,
          350.55,
          352.38,
          354.205,
          356.055,
          357.445,
          359.28,
          361.585,
          362.06,
          363.905,
          365.74,
          368.51,
          370.365,
          372.675,
          374.515,
          376.355,
          377.745,
          381.905,
          384.21,
          386.045,
          387.885,
          390.2,
          392.97,
          395.27,
          396.655,
          398.515,
          400.355,
          401.735,
          404.045,
          406.805,
          408.655,
          410.505,
          412.35,
          415.115,
          416.035,
          418.815,
          421.115,
          423.415,
          425.725,
          427.105,
          428.96,
          431.725,
          434.035,
          435.88,
          438.185,
          440.025,
          441.865,
          443.725,
          444.65,
          449.72,
          451.57,
          452.95,
          455.255,
          457.09,
          460.32,
          461.71,
          463.555,
          464.935,
          467.25,
          469.095,
          471.395,
          474.17,
          476.945,
          478.79,
          480.17,
          482.475,
          484.325,
          486.175,
          488.48,
          489.855,
          492.16,
          494.0,
          496.31,
          499.085,
          500.935,
          502.32,
          505.085,
          507.395,
          509.235,
          511.54,
          514.77,
          516.61,
          519.38,
          521.69,
          523.535,
          525.84,
          527.69,
          529.995,
          532.755,
          535.52,
          537.83,
          539.22,
          541.52,
          543.825,
          545.68,
          547.985,
          549.835,
          553.52,
          555.82,
          559.975,
          562.295,
          564.6,
          568.745,
          572.895,
          575.2,
          575.66,
          577.5,
          579.805,
          582.57,
          584.415,
          585.805,
          588.11,
          590.425,
          593.195,
          595.035,
          596.885,
          598.725,
          600.11,
          602.41,
          604.26,
          606.11,
          608.88,
          612.11,
          614.875,
          616.715,
          619.48,
          621.79,
          623.64,
          626.4,
          628.245,
          631.94,
          633.325,
          635.635,
          638.86,
          641.165,
          643.925,
          645.31,
          647.615,
          649.46,
          651.775,
          655.01,
          656.86,
          658.705,
          661.465,
          662.845,
          664.69,
          666.54,
          667.93,
          670.23,
          672.995,
          674.845,
          677.15,
          679.0,
          680.84,
          682.685,
          684.525,
          686.37,
          688.22,
          690.985,
          691.895,
          694.665,
          696.52,
          699.285,
          700.665,
          703.895,
          706.665,
          708.05,
          709.435,
          711.285,
          713.595,
          715.9,
          717.275,
          720.5,
          722.815,
          724.21,
          726.055,
          728.81,
          731.58,
          733.42,
          735.73,
          738.49,
          742.645,
          744.955,
          749.105,
          751.415,
          754.185,
          756.49,
          760.18,
          763.405,
          764.79,
          768.02,
          770.785,
          773.09,
          774.015,
          776.33,
          778.63,
          780.93,
          783.24,
          785.085,
          786.93,
          789.235,
          790.63,
          792.935,
          795.24,
          797.54,
          802.155,
          804.925,
          805.85,
          808.61,
          810.92,
          812.305,
          814.61,
          816.92,
          819.225,
          825.22,
          827.06,
          828.445,
          832.14,
          836.75,
          839.51,
          840.895,
          842.29,
          847.365,
          848.74,
          850.595,
          856.13,
          858.89,
          860.74,
          863.045,
          878.27,
          879.19,
          881.035,
          884.725,
          887.02,
          888.865,
          891.18,
          894.41,
          897.18,
          906.405,
          908.715,
          914.705,
          917.47,
          919.78,
          923.01,
          941.46,
          943.3,
          945.605,
          947.92,
          null
        ],
        [
          73.571,
          62.988,
          51.7,
          49.114,
          77.335,
          124.84,
          93.563,
          104.15,
          174.23,
          195.4,
          241.255,
          236.555,
          235.85,
          232.08,
          211.39,
          213.27,
          221.27,
          277.24,
          273.48,
          300.055,
          313.93,
          310.17,
          311.58,
          269.955,
          239.375,
          250.43,
          261.955,
          252.32,
          234.91,
          216.805,
          213.75,
          224.57,
          198.23,
          173.3,
          174.475,
          180.355,
          182.24,
          200.345,
          214.22,
          222.69,
          208.345,
          194.47,
          188.585,
          189.3,
          199.64,
          205.76,
          193.53,
          175.66,
          180.36,
          206.23,
          213.995,
          196.35,
          182.005,
          179.89,
          190.24,
          176.365,
          165.545,
          158.73,
          150.26,
          156.38,
          153.56,
          157.79,
          158.965,
          175.66,
          191.655,
          201.06,
          196.125,
          190.485,
          193.54,
          194.95,
          193.54,
          171.195,
          169.55,
          178.49,
          185.07,
          190.25,
          175.67,
          173.79,
          183.19,
          187.195,
          189.31,
          174.26,
          177.08,
          181.31,
          168.385,
          158.035,
          150.035,
          154.04,
          162.03,
          183.2,
          178.49,
          179.91,
          186.96,
          167.68,
          161.09,
          170.5,
          169.09,
          152.16,
          155.92,
          161.095,
          163.45,
          170.5,
          172.615,
          188.38,
          181.085,
          171.205,
          169.795,
          153.335,
          140.87,
          155.45,
          175.915,
          192.14,
          184.62,
          171.45,
          175.68,
          190.73,
          202.02,
          167.925,
          160.63,
          154.52,
          128.18,
          140.88,
          136.645,
          135.23,
          139.0,
          115.01,
          106.775,
          114.775,
          113.6,
          128.18,
          125.125,
          102.78,
          99.02,
          109.37,
          111.25,
          108.9,
          110.545,
          114.54,
          112.19,
          109.135,
          111.25,
          107.255,
          96.437,
          85.385,
          93.381,
          104.2,
          98.555,
          90.795,
          77.391,
          82.094,
          89.62,
          99.263,
          103.73,
          77.628,
          57.403,
          80.215,
          106.08,
          97.619,
          101.145,
          98.325,
          81.628,
          61.404,
          72.692,
          107.03,
          121.14,
          98.563,
          105.385,
          125.37,
          105.385,
          98.093,
          105.15,
          115.03,
          98.565,
          83.984,
          88.924,
          105.15,
          92.451,
          93.628,
          69.406,
          94.1,
          111.74,
          95.746,
          94.57,
          93.866,
          99.51,
          88.457,
          69.409,
          87.282,
          83.755,
          81.168,
          93.163,
          83.521,
          76.701,
          75.055,
          89.166,
          79.054,
          64.238,
          87.051,
          74.587,
          91.049,
          82.113,
          66.357,
          75.999,
          67.534,
          66.123,
          75.06,
          85.408,
          74.59,
          63.772,
          60.01,
          61.892,
          58.835,
          57.659,
          75.533,
          86.117,
          62.835,
          67.304,
          80.709,
          73.889,
          52.488,
          66.834,
          74.125,
          50.608,
          48.492,
          55.547,
          60.486,
          53.902,
          43.084,
          40.968,
          46.377,
          57.666,
          61.43,
          64.722,
          58.373,
          45.439,
          34.386,
          43.323,
          51.79,
          36.033,
          57.2,
          42.854,
          49.675,
          54.144,
          44.737,
          41.68,
          47.325,
          41.681,
          37.918,
          49.442,
          58.38,
          59.556,
          34.392,
          48.974,
          57.205,
          45.682,
          42.39,
          31.337,
          37.922,
          42.392,
          48.742,
          36.043,
          24.285,
          32.752,
          44.746,
          34.164,
          38.868,
          42.865,
          45.453,
          55.802,
          54.391,
          43.573,
          52.275,
          38.87,
          22.173,
          40.282,
          36.049,
          27.818,
          38.401,
          40.754,
          38.873,
          31.818,
          25.939,
          28.056,
          19.59,
          32.525,
          39.111,
          36.759,
          27.117,
          31.586,
          38.406,
          32.528,
          29.941,
          20.535,
          26.65,
          28.532,
          44.524,
          39.35,
          35.588,
          41.703,
          36.059,
          24.536,
          15.835,
          9.956,
          15.131,
          25.243,
          30.888,
          28.536,
          16.307,
          18.189,
          25.95,
          23.834,
          15.839,
          17.72,
          16.31,
          15.134,
          21.484,
          29.01,
          25.483,
          16.547,
          32.539,
          49.236,
          29.012,
          21.957,
          34.657,
          33.246,
          30.895,
          19.137,
          22.194,
          24.782,
          11.377,
          7.379,
          19.374,
          29.016,
          24.548,
          7.616,
          2.207,
          15.143,
          21.493,
          24.08,
          22.199,
          25.257,
          24.316,
          28.08,
          14.441,
          23.377,
          15.147,
          13.971,
          20.322,
          19.382,
          20.793,
          17.501,
          14.915,
          23.146,
          20.089,
          4.568,
          10.683,
          19.385,
          20.561,
          19.151,
          17.27,
          22.444,
          9.039,
          2.219,
          8.099,
          13.979,
          18.683,
          12.334,
          4.338,
          9.983,
          12.806,
          18.215,
          6.927,
          7.868,
          13.042,
          2.695,
          13.279,
          17.983,
          3.637,
          4.579,
          21.042,
          25.981,
          4.815,
          0.0,
          12.577,
          10.696,
          0.0,
          6.229,
          7.876,
          9.758,
          0.0,
          3.881,
          9.761,
          0.0,
          16.818,
          22.932,
          11.644,
          3.649,
          4.59,
          0.0,
          3.886,
          0.0,
          13.53,
          9.768,
          7.181,
          0.0,
          6.715,
          13.3,
          3.894,
          0.0
        ]
      ]
    }
  },
  "23344-004": {
    "reaction": {
      "0": {
        "x4_code": "(55-CS-143(0,B-)56-BA-143,,PN/DE,,REL)",
        "0": {
          "code": [
            "55-CS-143",
            [
              "0,B-"
            ],
            "56-BA-143,,PN/DE,,REL"
          ],
          "type": null,
          "target": "55-CS-143",
          "process": "0,B-",
          "sf49": "56-BA-143,,PN/DE,,REL",
          "sf4": "56-BA-143",
          "sf5": null,
          "sf6": "PN/DE",
          "sf7": null,
          "sf8": "REL",
          "sf9": null
        },
        "type": null,
        "free_text": ""
      }
    },
    "extra_information": {
      "decay-data": {
        "0": [
          {
            "x4_code": "(55-CS-143,1.77SEC)",
            "free_txt": []
          }
        ]
      },
      "en-sec": {
        "0": [
          {
            "x4_code": "(E,N)",
            "free_txt": [
              " Energy of delayed neutrons."
            ]
          }
        ]
      },
      "err-analys": {
        "0": [
          {
            "x4_code": "(E-ERR-DIG)",
            "free_txt": [
              " Digitizing error of E ( X scale)"
            ]
          },
          {
            "x4_code": "(ERR-DIG)",
            "free_txt": [
              "    Digitizing error of DATA ( Y scale)",
              "Quantization errors (one pixel):",
              "scale X - 1.03 keV, scale Y - 1.06 arb.units."
            ]
          }
        ]
      },
      "status": {
        "0": [
          {
            "x4_code": "(CURVE)",
            "free_txt": [
              " Fig.29c of P,MAINZ-77,59,197"
            ]
          }
        ]
      }
    },
    "common": {
      "heads": [
        "E-ERR-DIG",
        "ERR-DIG"
      ],
      "units": [
        "KEV",
        "ARB-UNITS"
      ],
      "data": [
        [
          2.2
        ],
        [
          1.54
        ]
      ]
    },
    "data": {
      "heads": [
        "E-MIN",
        "E-MAX",
        "DATA"
      ],
      "units": [
        "KEV",
        "KEV",
        "ARB-UNITS"
      ],
      "data": [
        [
          null,
          5.08,
          7.11,
          10.6,
          12.47,
          13.77,
          15.36,
          16.16,
          16.94,
          17.86,
          19.51,
          20.91,
          24.05,
          26.28,
          28.66,
          31.2,
          33.74,
          36.64,
          39.38,
          41.54,
          43.15,
          45.76,
          48.85,
          52.52,
          55.71,
          58.28,
          60.83,
          63.39,
          65.29,
          66.08,
          67.92,
          69.74,
          71.62,
          73.59,
          76.91,
          80.29,
          82.79,
          85.33,
          86.92,
          89.54,
          94.16,
          96.72,
          98.84,
          100.94,
          102.0,
          105.69,
          107.34,
          110.47,
          114.03,
          115.97,
          117.84,
          119.74,
          122.77,
          124.72,
          126.04,
          129.11,
          131.34,
          134.53,
          136.12,
          137.75,
          139.8,
          141.44,
          143.82,
          147.05,
          149.63,
          153.68,
          154.47,
          157.35,
          158.69,
          161.01,
          162.89,
          164.19,
          166.02,
          168.6,
          170.73,
          173.39,
          176.1,
          178.26,
          180.38,
          183.02,
          185.79,
          187.45,
          190.09,
          191.59,
          195.7,
          198.33,
          199.25,
          203.19,
          204.04,
          206.01,
          208.51,
          210.43,
          212.97,
          215.63,
          217.25,
          220.82,
          223.87,
          226.94,
          228.38,
          230.88,
          232.55,
          234.76,
          236.84,
          238.42,
          241.23,
          243.53,
          245.78,
          247.75,
          249.01,
          251.26,
          254.16,
          256.26,
          258.78,
          260.33,
          262.0,
          264.23,
          266.33,
          267.79,
          271.31,
          274.37,
          277.99,
          281.12,
          284.72,
          285.57,
          288.03,
          291.07,
          291.94,
          294.0,
          297.17,
          299.32,
          301.94,
          303.99,
          306.61,
          307.75,
          310.48,
          312.56,
          314.57,
          316.71,
          318.88,
          321.09,
          323.23,
          324.74,
          326.78,
          328.76,
          330.23,
          332.32,
          334.89,
          338.32,
          340.67,
          343.72,
          345.73,
          347.33,
          349.04,
          352.63,
          354.19,
          356.39,
          358.62,
          361.23,
          363.27,
          366.02,
          368.28,
          371.44,
          373.54,
          375.59,
          377.67,
          379.82,
          381.98,
          385.1,
          388.81,
          391.01,
          393.62,
          395.66,
          397.72,
          398.77,
          400.82,
          402.87,
          404.94,
          406.51,
          408.07,
          411.67,
          415.25,
          417.26,
          418.78,
          420.83,
          421.82,
          424.34,
          426.4,
          430.52,
          432.62,
          433.7,
          437.75,
          440.32,
          445.46,
          447.54,
          451.69,
          453.68,
          456.27,
          457.36,
          460.94,
          464.01,
          466.6,
          469.13,
          472.22,
          475.29,
          477.85,
          479.97,
          483.1,
          486.18,
          489.24,
          491.26,
          493.34,
          496.46,
          498.46,
          499.95,
          502.55,
          506.73,
          509.34,
          511.38,
          512.93,
          514.51,
          518.62,
          520.15,
          521.22,
          523.78,
          525.29,
          527.73,
          529.76,
          531.91,
          534.46,
          538.05,
          540.63,
          543.16,
          544.72,
          546.27,
          548.34,
          550.45,
          551.99,
          554.5,
          556.56,
          558.14,
          560.31,
          562.4,
          564.93,
          567.53,
          568.58,
          571.16,
          572.71,
          574.73,
          577.29,
          578.82,
          581.39,
          584.01,
          586.56,
          588.05,
          591.15,
          594.29,
          596.36,
          600.0,
          603.12,
          605.1,
          608.15,
          610.75,
          614.37,
          617.39,
          619.87,
          622.46,
          624.1,
          627.15,
          629.14,
          632.14,
          634.66,
          637.83,
          642.55,
          645.7,
          651.36,
          656.51,
          659.09,
          660.04,
          662.61,
          664.22,
          666.27,
          667.2,
          669.18,
          672.26,
          674.36,
          675.96,
          678.04,
          680.53,
          682.51,
          685.15,
          686.79,
          688.87,
          690.38,
          692.44,
          694.01,
          695.51,
          699.11,
          700.13,
          701.63,
          703.71,
          705.79,
          708.83,
          711.39,
          712.92,
          714.41,
          717.03,
          720.24,
          723.78,
          726.27,
          728.36,
          729.93,
          732.06,
          734.18,
          736.2,
          738.19,
          740.25,
          745.88,
          747.9,
          750.48,
          752.57,
          755.69,
          758.27,
          760.34,
          762.9,
          764.9,
          767.45,
          768.51,
          770.12,
          772.19,
          774.19,
          778.81,
          780.94,
          783.52,
          785.02,
          787.08,
          788.63,
          791.18,
          794.25,
          796.27,
          798.82,
          800.89,
          803.0,
          808.14,
          808.6,
          810.11,
          813.74,
          816.86,
          820.45,
          825.61,
          828.7,
          830.76,
          833.85,
          836.43,
          837.9,
          841.44,
          843.02,
          845.1,
          847.12,
          849.17,
          851.8,
          853.38,
          855.45,
          858.48,
          859.46,
          861.52,
          864.12,
          869.27,
          871.82,
          874.36,
          876.91,
          880.55,
          882.61,
          887.72,
          889.75,
          891.86,
          893.97,
          896.5,
          900.58,
          902.68,
          904.78,
          906.85,
          909.39,
          912.45,
          915.52,
          917.09,
          920.67,
          922.17,
          926.28,
          928.37,
          930.42,
          932.44,
          934.49,
          937.06,
          939.63,
          943.24,
          945.85,
          948.96,
          950.46,
          953.5,
          956.59,
          960.18,
          961.73,
          966.91,
          970.0,
          971.99,
          974.58,
          977.16,
          981.79,
          984.92,
          988.01,
          989.51,
          992.07,
          994.66,
          997.73,
          999.72,
          1002.85,
          1006.9,
          1010.55,
          1014.15,
          1021.3,
          1023.9,
          1026.45,
          1029.55,
          1032.15,
          1035.2,
          1039.25,
          1042.4,
          1043.95,
          1046.55,
          1048.55,
          1050.65,
          1053.2,
          1054.2,
          1056.8,
          1058.85,
          1061.95,
          1066.55,
          1069.6,
          1071.2,
          1074.25,
          1080.4,
          1082.95,
          1088.15,
          1089.65,
          1092.75,
          1095.85,
          1098.35,
          1102.45,
          1108.7,
          1111.75
        ],
        [
          5.08,
          7.11,
          10.6,
          12.47,
          13.77,
          15.36,
          16.16,
          16.94,
          17.86,
          19.51,
          20.91,
          24.05,
          26.28,
          28.66,
          31.2,
          33.74,
          36.64,
          39.38,
          41.54,
          43.15,
          45.76,
          48.85,
          52.52,
          55.71,
          58.28,
          60.83,
          63.39,
          65.29,
          66.08,
          67.92,
          69.74,
          71.62,
          73.59,
          76.91,
          80.29,
          82.79,
          85.33,
          86.92,
          89.54,
          94.16,
          96.72,
          98.84,
          100.94,
          102.0,
          105.69,
          107.34,
          110.47,
          114.03,
          115.97,
          117.84,
          119.74,
          122.77,
          124.72,
          126.04,
          129.11,
          131.34,
          134.53,
          136.12,
          137.75,
          139.8,
          141.44,
          143.82,
          147.05,
          149.63,
          153.68,
          154.47,
          157.35,
          158.69,
          161.01,
          162.89,
          164.19,
          166.02,
          168.6,
          170.73,
          173.39,
          176.1,
          178.26,
          180.38,
          183.02,
          185.79,
          187.45,
          190.09,
          191.59,
          195.7,
          198.33,
          199.25,
          203.19,
          204.04,
          206.01,
          208.51,
          210.43,
          212.97,
          215.63,
          217.25,
          220.82,
          223.87,
          226.94,
          228.38,
          230.88,
          232.55,
          234.76,
          236.84,
          238.42,
          241.23,
          243.53,
          245.78,
          247.75,
          249.01,
          251.26,
          254.16,
          256.26,
          258.78,
          260.33,
          262.0,
          264.23,
          266.33,
          267.79,
          271.31,
          274.37,
          277.99,
          281.12,
          284.72,
          285.57,
          288.03,
          291.07,
          291.94,
          294.0,
          297.17,
          299.32,
          301.94,
          303.99,
          306.61,
          307.75,
          310.48,
          312.56,
          314.57,
          316.71,
          318.88,
          321.09,
          323.23,
          324.74,
          326.78,
          328.76,
          330.23,
          332.32,
          334.89,
          338.32,
          340.67,
          343.72,
          345.73,
          347.33,
          349.04,
          352.63,
          354.19,
          356.39,
          358.62,
          361.23,
          363.27,
          366.02,
          368.28,
          371.44,
          373.54,
          375.59,
          377.67,
          379.82,
          381.98,
          385.1,
          388.81,
          391.01,
          393.62,
          395.66,
          397.72,
          398.77,
          400.82,
          402.87,
          404.94,
          406.51,
          408.07,
          411.67,
          415.25,
          417.26,
          418.78,
          420.83,
          421.82,
          424.34,
          426.4,
          430.52,
          432.62,
          433.7,
          437.75,
          440.32,
          445.46,
          447.54,
          451.69,
          453.68,
          456.27,
          457.36,
          460.94,
          464.01,
          466.6,
          469.13,
          472.22,
          475.29,
          477.85,
          479.97,
          483.1,
          486.18,
          489.24,
          491.26,
          493.34,
          496.46,
          498.46,
          499.95,
          502.55,
          506.73,
          509.34,
          511.38,
          512.93,
          514.51,
          518.62,
          520.15,
          521.22,
          523.78,
          525.29,
          527.73,
          529.76,
          531.91,
          534.46,
          538.05,
          540.63,
          543.16,
          544.72,
          546.27,
          548.34,
          550.45,
          551.99,
          554.5,
          556.56,
          558.14,
          560.31,
          562.4,
          564.93,
          567.53,
          568.58,
          571.16,
          572.71,
          574.73,
          577.29,
          578.82,
          581.39,
          584.01,
          586.56,
          588.05,
          591.15,
          594.29,
          596.36,
          600.0,
          603.12,
          605.1,
          608.15,
          610.75,
          614.37,
          617.39,
          619.87,
          622.46,
          624.1,
          627.15,
          629.14,
          632.14,
          634.66,
          637.83,
          642.55,
          645.7,
          651.36,
          656.51,
          659.09,
          660.04,
          662.61,
          664.22,
          666.27,
          667.2,
          669.18,
          672.26,
          674.36,
          675.96,
          678.04,
          680.53,
          682.51,
          685.15,
          686.79,
          688.87,
          690.38,
          692.44,
          694.01,
          695.51,
          699.11,
          700.13,
          701.63,
          703.71,
          705.79,
          708.83,
          711.39,
          712.92,
          714.41,
          717.03,
          720.24,
          723.78,
          726.27,
          728.36,
          729.93,
          732.06,
          734.18,
          736.2,
          738.19,
          740.25,
          745.88,
          747.9,
          750.48,
          752.57,
          755.69,
          758.27,
          760.34,
          762.9,
          764.9,
          767.45,
          768.51,
          770.12,
          772.19,
          774.19,
          778.81,
          780.94,
          783.52,
          785.02,
          787.08,
          788.63,
          791.18,
          794.25,
          796.27,
          798.82,
          800.89,
          803.0,
          808.14,
          808.6,
          810.11,
          813.74,
          816.86,
          820.45,
          825.61,
          828.7,
          830.76,
          833.85,
          836.43,
          837.9,
          841.44,
          843.02,
          845.1,
          847.12,
          849.17,
          851.8,
          853.38,
          855.45,
          858.48,
          859.46,
          861.52,
          864.12,
          869.27,
          871.82,
          874.36,
          876.91,
          880.55,
          882.61,
          887.72,
          889.75,
          891.86,
          893.97,
          896.5,
          900.58,
          902.68,
          904.78,
          906.85,
          909.39,
          912.45,
          915.52,
          917.09,
          920.67,
          922.17,
          926.28,
          928.37,
          930.42,
          932.44,
          934.49,
          937.06,
          939.63,
          943.24,
          945.85,
          948.96,
          950.46,
          953.5,
          956.59,
          960.18,
          961.73,
          966.91,
          970.0,
          971.99,
          974.58,
          977.16,
          981.79,
          984.92,
          988.01,
          989.51,
          992.07,
          994.66,
          997.73,
          999.72,
          1002.85,
          1006.9,
          1010.55,
          1014.15,
          1021.3,
          1023.9,
          1026.45,
          1029.55,
          1032.15,
          1035.2,
          1039.25,
          1042.4,
          1043.95,
          1046.55,
          1048.55,
          1050.65,
          1053.2,
          1054.2,
          1056.8,
          1058.85,
          1061.95,
          1066.55,
          1069.6,
          1071.2,
          1074.25,
          1080.4,
          1082.95,
          1088.15,
          1089.65,
          1092.75,
          1095.85,
          1098.35,
          1102.45,
          1108.7,
          1111.75,
          1114.3
        ],
        [
          0.0,
          8.38,
          11.03,
          50.09,
          92.32,
          148.26,
          287.6,
          462.8,
          607.39,
          723.5,
          780.5,
          782.62,
          755.2,
          708.24,
          619.07,
          502.46,
          414.87,
          362.63,
          341.01,
          319.38,
          308.85,
          303.05,
          306.76,
          270.9,
          258.77,
          274.09,
          264.61,
          275.7,
          331.12,
          376.51,
          421.37,
          475.21,
          492.63,
          514.27,
          605.07,
          607.72,
          629.89,
          621.99,
          607.75,
          601.43,
          609.89,
          604.63,
          580.37,
          587.76,
          564.55,
          545.05,
          518.67,
          527.65,
          535.07,
          575.17,
          611.07,
          638.52,
          635.38,
          682.87,
          725.1,
          689.23,
          649.66,
          647.03,
          626.99,
          610.12,
          630.17,
          567.38,
          491.41,
          504.62,
          484.06,
          532.09,
          585.92,
          613.38,
          673.54,
          713.66,
          746.91,
          820.27,
          837.7,
          816.08,
          808.7,
          770.19,
          754.89,
          727.47,
          725.37,
          694.25,
          645.18,
          635.16,
          620.92,
          651.55,
          618.85,
          627.3,
          664.78,
          698.04,
          738.15,
          731.84,
          768.77,
          790.43,
          776.2,
          755.1,
          741.38,
          765.15,
          753.56,
          770.99,
          798.43,
          794.76,
          747.79,
          724.59,
          740.95,
          706.13,
          638.08,
          604.31,
          553.66,
          642.33,
          670.83,
          560.55,
          529.95,
          540.0,
          551.62,
          537.9,
          494.64,
          464.04,
          475.65,
          496.78,
          508.4,
          505.78,
          498.94,
          481.54,
          501.08,
          554.91,
          543.85,
          576.58,
          604.55,
          579.24,
          566.59,
          535.46,
          545.51,
          539.17,
          524.41,
          493.28,
          453.73,
          480.64,
          471.15,
          446.36,
          422.1,
          382.53,
          386.24,
          395.75,
          392.05,
          426.89,
          422.69,
          408.98,
          421.65,
          480.25,
          512.98,
          492.41,
          534.11,
          465.51,
          459.19,
          472.93,
          448.13,
          411.74,
          375.33,
          395.93,
          378.52,
          316.26,
          295.69,
          281.46,
          276.2,
          287.28,
          264.07,
          245.1,
          220.82,
          229.29,
          171.26,
          167.57,
          157.03,
          167.07,
          158.63,
          154.41,
          163.93,
          157.61,
          151.81,
          147.6,
          142.86,
          145.51,
          150.28,
          165.06,
          158.75,
          166.13,
          176.69,
          184.1,
          174.62,
          179.38,
          155.64,
          153.54,
          182.06,
          153.57,
          179.98,
          144.12,
          164.18,
          169.47,
          150.48,
          145.75,
          155.79,
          154.22,
          145.26,
          165.86,
          145.29,
          167.47,
          153.76,
          136.88,
          134.79,
          138.5,
          142.2,
          152.25,
          132.2,
          136.44,
          153.86,
          159.14,
          138.06,
          128.57,
          124.37,
          128.07,
          123.32,
          110.68,
          126.52,
          112.81,
          109.12,
          112.82,
          128.13,
          161.39,
          141.36,
          120.79,
          148.24,
          126.1,
          138.77,
          144.59,
          128.76,
          137.22,
          126.67,
          110.32,
          130.91,
          135.14,
          129.35,
          114.06,
          81.35,
          98.77,
          96.68,
          84.55,
          90.89,
          78.23,
          85.63,
          94.61,
          88.82,
          98.33,
          86.73,
          79.88,
          92.56,
          101.54,
          82.56,
          79.41,
          77.31,
          57.27,
          64.67,
          85.8,
          77.89,
          72.1,
          68.43,
          95.35,
          108.04,
          82.71,
          67.95,
          94.35,
          98.05,
          128.14,
          117.08,
          91.24,
          74.37,
          62.78,
          70.73,
          57.56,
          68.12,
          85.54,
          68.66,
          57.59,
          68.15,
          97.71,
          101.95,
          97.21,
          86.14,
          68.21,
          74.55,
          106.22,
          102.02,
          76.16,
          59.82,
          64.05,
          74.61,
          60.37,
          64.07,
          73.59,
          64.1,
          75.18,
          78.89,
          65.71,
          72.05,
          79.98,
          74.72,
          85.27,
          97.95,
          62.61,
          48.38,
          83.22,
          78.49,
          69.52,
          64.25,
          39.99,
          35.25,
          55.31,
          60.6,
          56.4,
          63.28,
          70.68,
          63.83,
          53.82,
          46.44,
          49.09,
          42.24,
          48.59,
          64.96,
          57.58,
          48.61,
          30.68,
          40.19,
          56.56,
          40.22,
          25.46,
          32.86,
          40.78,
          33.41,
          35.52,
          39.76,
          46.63,
          49.81,
          53.52,
          43.5,
          30.85,
          43.01,
          53.56,
          56.74,
          36.18,
          42.0,
          37.8,
          35.18,
          29.92,
          33.1,
          26.25,
          28.9,
          52.66,
          51.62,
          38.43,
          42.14,
          54.29,
          42.69,
          26.87,
          23.71,
          25.83,
          43.26,
          47.49,
          39.58,
          31.69,
          34.87,
          38.05,
          48.09,
          41.25,
          36.51,
          33.36,
          49.21,
          42.89,
          27.07,
          20.22,
          42.93,
          30.28,
          21.85,
          12.36,
          17.12,
          20.83,
          29.29,
          24.02,
          19.28,
          26.69,
          34.61,
          28.3,
          21.45,
          29.37,
          34.66,
          30.98,
          36.8,
          31.54,
          28.38,
          13.09,
          16.27,
          30.53,
          34.24,
          27.93,
          32.69,
          24.79,
          13.73,
          25.35,
          38.03,
          19.04,
          26.45,
          19.08,
          4.85,
          13.83,
          25.45,
          17.54,
          13.87,
          23.91,
          32.89,
          21.82,
          32.92,
          12.9,
          20.3,
          24.03,
          29.84,
          24.05,
          16.68,
          11.94,
          35.18,
          29.39,
          22.54,
          10.95,
          19.93,
          23.63,
          12.04,
          20.48,
          25.25,
          21.56,
          14.71,
          11.57,
          21.62,
          13.71,
          8.97,
          19.55,
          24.85,
          11.68,
          14.33,
          21.2,
          10.67,
          16.48,
          31.27,
          9.66,
          18.66,
          11.29
        ]
      ]
    }
  },
  "23344-005": {
    "reaction": {
      "0": {
        "x4_code": "(55-CS-144(0,B-)56-BA-144,,PN/DE,,REL)",
        "0": {
          "code": [
            "55-CS-144",
            [
              "0,B-"
            ],
            "56-BA-144,,PN/DE,,REL"
          ],
          "type": null,
          "target": "55-CS-144",
          "process": "0,B-",
          "sf49": "56-BA-144,,PN/DE,,REL",
          "sf4": "56-BA-144",
          "sf5": null,
          "sf6": "PN/DE",
          "sf7": null,
          "sf8": "REL",
          "sf9": null
        },
        "type": null,
        "free_text": ""
      }
    },
    "extra_information": {
      "decay-data": {
        "0": [
          {
            "x4_code": "(55-CS-144,1.00SEC)",
            "free_txt": []
          }
        ]
      },
      "en-sec": {
        "0": [
          {
            "x4_code": "(E,N)",
            "free_txt": [
              " Energy of delayed neutrons."
            ]
          }
        ]
      },
      "err-analys": {
        "0": [
          {
            "x4_code": "(E-ERR-DIG)",
            "free_txt": [
              " Digitizing error of E ( X scale)"
            ]
          },
          {
            "x4_code": "(ERR-DIG)",
            "free_txt": [
              "    Digitizing error of DATA ( Y scale)",
              "Quantization errors (one pixel):",
              "scale X - 1.04 keV, scale Y - 0.262 arb.units."
            ]
          }
        ]
      },
      "status": {
        "0": [
          {
            "x4_code": "(CURVE)",
            "free_txt": [
              " Fig.29d of P,MAINZ-77,59,197"
            ]
          }
        ]
      }
    },
    "common": {
      "heads": [
        "E-ERR-DIG",
        "ERR-DIG"
      ],
      "units": [
        "KEV",
        "ARB-UNITS"
      ],
      "data": [
        [
          0.786
        ],
        [
          0.233
        ]
      ]
    },
    "data": {
      "heads": [
        "E-MIN",
        "E-MAX",
        "DATA"
      ],
      "units": [
        "KEV",
        "KEV",
        "ARB-UNITS"
      ],
      "data": [
        [
          null,
          14.29,
          14.66,
          16.74,
          18.26,
          20.69,
          23.39,
          25.42,
          27.93,
          30.01,
          32.03,
          33.87,
          35.77,
          37.27,
          39.31,
          42.97,
          45.05,
          45.96,
          48.51,
          53.22,
          57.44,
          58.7,
          60.98,
          63.11,
          65.7,
          67.21,
          68.71,
          70.83,
          72.9,
          74.37,
          77.49,
          79.52,
          81.52,
          83.65,
          85.16,
          87.6,
          90.72,
          93.35,
          95.43,
          97.17,
          98.83,
          100.88,
          104.01,
          105.59,
          107.22,
          109.91,
          111.98,
          114.06,
          115.69,
          117.16,
          118.6,
          121.26,
          122.88,
          126.01,
          129.64,
          131.12,
          133.57,
          136.14,
          138.75,
          141.47,
          143.13,
          144.9,
          147.29,
          149.42,
          151.95,
          153.98,
          156.1,
          158.14,
          160.3,
          161.57,
          164.24,
          165.64,
          167.63,
          168.76,
          171.41,
          174.0,
          176.69,
          179.37,
          181.35,
          183.32,
          185.86,
          187.95,
          189.52,
          191.0,
          193.1,
          195.25,
          197.26,
          199.81,
          201.4,
          203.97,
          205.59,
          207.37,
          209.97,
          211.7,
          214.16,
          215.36,
          216.44,
          218.45,
          221.06,
          221.13,
          223.26,
          225.29,
          227.83,
          229.35,
          231.3,
          233.26,
          235.87,
          238.03,
          240.17,
          241.75,
          243.2,
          245.28,
          249.46,
          251.97,
          254.03,
          255.12,
          257.65,
          259.75,
          261.55,
          264.35,
          265.86,
          266.65,
          268.64,
          270.78,
          273.29,
          275.33,
          277.45,
          281.49,
          285.63,
          288.71,
          291.72,
          292.83,
          295.12,
          297.3,
          299.61,
          301.62,
          303.82,
          305.26,
          307.76,
          309.77,
          311.86,
          313.53,
          316.68,
          317.58,
          319.56,
          321.21,
          323.86,
          327.5,
          330.09,
          331.69,
          333.91,
          335.97,
          337.89,
          339.85,
          342.97,
          344.51,
          348.18,
          350.85,
          352.86,
          354.8,
          356.75,
          359.77,
          362.26,
          363.86,
          365.59,
          368.26,
          369.73,
          372.26,
          374.45,
          375.63,
          378.12,
          380.55,
          382.61,
          384.32,
          387.05,
          388.0,
          390.06,
          392.27,
          394.29,
          396.6,
          398.6,
          400.31,
          402.81,
          404.76,
          406.48,
          408.67,
          411.75,
          414.71,
          416.16,
          418.42,
          420.03,
          422.0,
          424.12,
          426.16,
          427.58,
          429.19,
          431.39,
          433.55,
          435.64,
          438.02,
          441.05,
          442.24,
          444.96,
          446.52,
          449.02,
          450.51,
          453.5,
          456.04,
          457.71,
          459.37,
          461.51,
          464.07,
          467.69,
          469.76,
          472.28,
          474.9,
          477.45,
          479.89,
          481.94,
          484.18,
          485.86,
          487.38,
          489.38,
          491.48,
          493.53,
          496.15,
          497.28,
          499.87,
          501.3,
          503.79,
          506.0,
          508.17,
          510.01,
          510.91,
          513.7,
          514.89,
          516.94,
          519.45,
          521.95,
          524.04,
          526.68,
          527.63,
          529.13,
          530.7,
          532.77,
          535.85,
          538.96,
          541.59,
          544.18,
          547.89,
          550.49,
          551.42,
          554.56,
          556.23,
          558.3,
          560.77,
          562.46,
          564.19,
          566.1,
          567.52,
          569.65,
          571.82,
          575.02,
          577.04,
          578.41,
          580.9,
          582.98,
          585.59,
          587.66,
          589.14,
          591.14,
          594.27,
          595.98,
          598.12,
          600.15,
          602.25,
          604.83,
          606.89,
          608.97,
          610.53,
          611.63,
          613.24,
          616.86,
          618.38,
          620.37,
          622.31,
          623.83,
          626.02,
          627.63,
          630.16,
          632.26,
          633.91,
          635.95,
          639.59,
          641.75,
          644.35,
          646.93,
          650.52,
          654.03,
          656.06,
          658.58,
          660.65,
          661.24,
          662.88,
          664.42,
          666.93,
          668.97,
          671.59,
          673.26,
          675.85,
          677.83,
          680.39,
          682.49,
          683.58,
          686.12,
          688.08,
          690.18,
          692.36,
          694.47,
          696.96,
          700.08,
          701.84,
          703.94,
          706.41,
          708.39,
          709.35,
          711.47,
          712.61,
          714.66,
          717.28,
          719.36,
          721.85,
          723.41,
          725.07,
          727.21,
          729.28,
          732.31,
          734.33,
          735.89,
          736.97,
          738.5,
          741.01,
          744.11,
          745.74,
          747.38,
          749.47,
          751.52,
          753.61,
          755.69,
          757.7,
          759.24,
          761.35,
          762.87,
          764.86,
          767.99,
          769.04,
          771.1,
          773.71,
          776.35,
          778.98,
          781.55,
          785.69,
          787.86,
          790.43,
          791.85,
          794.95,
          797.59,
          800.2,
          804.34,
          806.31,
          807.86,
          810.51,
          811.56,
          814.64,
          817.79,
          821.48,
          828.2,
          830.2,
          831.73,
          833.86,
          836.46,
          837.46,
          840.57,
          842.16,
          844.19,
          845.66,
          848.76,
          851.93,
          853.52,
          855.63,
          857.7,
          861.34,
          864.41,
          866.48,
          868.65,
          870.75,
          872.76,
          874.87,
          876.49,
          878.48,
          880.0,
          882.1,
          883.64,
          885.69,
          888.29,
          889.36,
          892.0,
          895.61,
          898.65,
          902.23,
          906.92,
          909.08,
          911.71,
          913.77,
          915.76,
          917.27,
          919.92,
          926.13,
          928.14,
          930.31,
          932.43,
          933.37,
          934.9,
          937.57,
          940.16,
          942.26,
          943.86,
          945.87,
          948.37,
          954.15,
          956.81,
          957.75,
          961.32,
          963.41,
          968.08,
          970.67,
          972.78,
          974.85,
          976.44,
          978.06,
          980.17,
          982.23,
          983.68,
          985.17,
          988.34,
          991.43,
          994.53,
          996.68,
          1004.5,
          1006.0,
          1008.0,
          1011.15,
          1012.75,
          1014.8,
          1016.3,
          1019.9,
          1022.55,
          1025.15,
          1027.25,
          1028.7,
          1031.35,
          1033.05,
          1035.05,
          1037.1,
          1040.25,
          1041.35,
          1043.95,
          1045.0,
          1047.0,
          1050.1,
          1053.2,
          1055.2,
          1057.75,
          1058.85,
          1060.95,
          1062.5,
          1065.0,
          1073.35,
          1077.0,
          1085.75,
          1089.45,
          1092.15,
          1095.75,
          1097.75,
          1099.8,
          1101.9,
          1102.95,
          1107.1,
          1109.65
        ],
        [
          14.29,
          14.66,
          16.74,
          18.26,
          20.69,
          23.39,
          25.42,
          27.93,
          30.01,
          32.03,
          33.87,
          35.77,
          37.27,
          39.31,
          42.97,
          45.05,
          45.96,
          48.51,
          53.22,
          57.44,
          58.7,
          60.98,
          63.11,
          65.7,
          67.21,
          68.71,
          70.83,
          72.9,
          74.37,
          77.49,
          79.52,
          81.52,
          83.65,
          85.16,
          87.6,
          90.72,
          93.35,
          95.43,
          97.17,
          98.83,
          100.88,
          104.01,
          105.59,
          107.22,
          109.91,
          111.98,
          114.06,
          115.69,
          117.16,
          118.6,
          121.26,
          122.88,
          126.01,
          129.64,
          131.12,
          133.57,
          136.14,
          138.75,
          141.47,
          143.13,
          144.9,
          147.29,
          149.42,
          151.95,
          153.98,
          156.1,
          158.14,
          160.3,
          161.57,
          164.24,
          165.64,
          167.63,
          168.76,
          171.41,
          174.0,
          176.69,
          179.37,
          181.35,
          183.32,
          185.86,
          187.95,
          189.52,
          191.0,
          193.1,
          195.25,
          197.26,
          199.81,
          201.4,
          203.97,
          205.59,
          207.37,
          209.97,
          211.7,
          214.16,
          215.36,
          216.44,
          218.45,
          221.06,
          221.13,
          223.26,
          225.29,
          227.83,
          229.35,
          231.3,
          233.26,
          235.87,
          238.03,
          240.17,
          241.75,
          243.2,
          245.28,
          249.46,
          251.97,
          254.03,
          255.12,
          257.65,
          259.75,
          261.55,
          264.35,
          265.86,
          266.65,
          268.64,
          270.78,
          273.29,
          275.33,
          277.45,
          281.49,
          285.63,
          288.71,
          291.72,
          292.83,
          295.12,
          297.3,
          299.61,
          301.62,
          303.82,
          305.26,
          307.76,
          309.77,
          311.86,
          313.53,
          316.68,
          317.58,
          319.56,
          321.21,
          323.86,
          327.5,
          330.09,
          331.69,
          333.91,
          335.97,
          337.89,
          339.85,
          342.97,
          344.51,
          348.18,
          350.85,
          352.86,
          354.8,
          356.75,
          359.77,
          362.26,
          363.86,
          365.59,
          368.26,
          369.73,
          372.26,
          374.45,
          375.63,
          378.12,
          380.55,
          382.61,
          384.32,
          387.05,
          388.0,
          390.06,
          392.27,
          394.29,
          396.6,
          398.6,
          400.31,
          402.81,
          404.76,
          406.48,
          408.67,
          411.75,
          414.71,
          416.16,
          418.42,
          420.03,
          422.0,
          424.12,
          426.16,
          427.58,
          429.19,
          431.39,
          433.55,
          435.64,
          438.02,
          441.05,
          442.24,
          444.96,
          446.52,
          449.02,
          450.51,
          453.5,
          456.04,
          457.71,
          459.37,
          461.51,
          464.07,
          467.69,
          469.76,
          472.28,
          474.9,
          477.45,
          479.89,
          481.94,
          484.18,
          485.86,
          487.38,
          489.38,
          491.48,
          493.53,
          496.15,
          497.28,
          499.87,
          501.3,
          503.79,
          506.0,
          508.17,
          510.01,
          510.91,
          513.7,
          514.89,
          516.94,
          519.45,
          521.95,
          524.04,
          526.68,
          527.63,
          529.13,
          530.7,
          532.77,
          535.85,
          538.96,
          541.59,
          544.18,
          547.89,
          550.49,
          551.42,
          554.56,
          556.23,
          558.3,
          560.77,
          562.46,
          564.19,
          566.1,
          567.52,
          569.65,
          571.82,
          575.02,
          577.04,
          578.41,
          580.9,
          582.98,
          585.59,
          587.66,
          589.14,
          591.14,
          594.27,
          595.98,
          598.12,
          600.15,
          602.25,
          604.83,
          606.89,
          608.97,
          610.53,
          611.63,
          613.24,
          616.86,
          618.38,
          620.37,
          622.31,
          623.83,
          626.02,
          627.63,
          630.16,
          632.26,
          633.91,
          635.95,
          639.59,
          641.75,
          644.35,
          646.93,
          650.52,
          654.03,
          656.06,
          658.58,
          660.65,
          661.24,
          662.88,
          664.42,
          666.93,
          668.97,
          671.59,
          673.26,
          675.85,
          677.83,
          680.39,
          682.49,
          683.58,
          686.12,
          688.08,
          690.18,
          692.36,
          694.47,
          696.96,
          700.08,
          701.84,
          703.94,
          706.41,
          708.39,
          709.35,
          711.47,
          712.61,
          714.66,
          717.28,
          719.36,
          721.85,
          723.41,
          725.07,
          727.21,
          729.28,
          732.31,
          734.33,
          735.89,
          736.97,
          738.5,
          741.01,
          744.11,
          745.74,
          747.38,
          749.47,
          751.52,
          753.61,
          755.69,
          757.7,
          759.24,
          761.35,
          762.87,
          764.86,
          767.99,
          769.04,
          771.1,
          773.71,
          776.35,
          778.98,
          781.55,
          785.69,
          787.86,
          790.43,
          791.85,
          794.95,
          797.59,
          800.2,
          804.34,
          806.31,
          807.86,
          810.51,
          811.56,
          814.64,
          817.79,
          821.48,
          828.2,
          830.2,
          831.73,
          833.86,
          836.46,
          837.46,
          840.57,
          842.16,
          844.19,
          845.66,
          848.76,
          851.93,
          853.52,
          855.63,
          857.7,
          861.34,
          864.41,
          866.48,
          868.65,
          870.75,
          872.76,
          874.87,
          876.49,
          878.48,
          880.0,
          882.1,
          883.64,
          885.69,
          888.29,
          889.36,
          892.0,
          895.61,
          898.65,
          902.23,
          906.92,
          909.08,
          911.71,
          913.77,
          915.76,
          917.27,
          919.92,
          926.13,
          928.14,
          930.31,
          932.43,
          933.37,
          934.9,
          937.57,
          940.16,
          942.26,
          943.86,
          945.87,
          948.37,
          954.15,
          956.81,
          957.75,
          961.32,
          963.41,
          968.08,
          970.67,
          972.78,
          974.85,
          976.44,
          978.06,
          980.17,
          982.23,
          983.68,
          985.17,
          988.34,
          991.43,
          994.53,
          996.68,
          1004.5,
          1006.0,
          1008.0,
          1011.15,
          1012.75,
          1014.8,
          1016.3,
          1019.9,
          1022.55,
          1025.15,
          1027.25,
          1028.7,
          1031.35,
          1033.05,
          1035.05,
          1037.1,
          1040.25,
          1041.35,
          1043.95,
          1045.0,
          1047.0,
          1050.1,
          1053.2,
          1055.2,
          1057.75,
          1058.85,
          1060.95,
          1062.5,
          1065.0,
          1073.35,
          1077.0,
          1085.75,
          1089.45,
          1092.15,
          1095.75,
          1097.75,
          1099.8,
          1101.9,
          1102.95,
          1107.1,
          1109.65,
          null
        ],
        [
          0.0,
          13.66,
          55.33,
          90.7,
          126.08,
          142.85,
          142.06,
          136.55,
          130.26,
          136.81,
          122.92,
          102.22,
          97.24,
          93.83,
          92.25,
          98.02,
          91.99,
          80.19,
          85.7,
          85.95,
          95.91,
          118.44,
          126.57,
          125.78,
          127.61,
          118.96,
          118.17,
          126.56,
          117.38,
          113.45,
          118.69,
          107.68,
          107.16,
          115.8,
          101.13,
          91.95,
          103.22,
          97.19,
          104.52,
          122.6,
          120.77,
          119.46,
          121.81,
          123.38,
          133.34,
          138.32,
          132.29,
          138.57,
          143.03,
          125.99,
          125.47,
          136.47,
          135.16,
          138.56,
          135.68,
          127.03,
          114.97,
          123.09,
          116.54,
          142.74,
          133.05,
          96.36,
          103.43,
          104.74,
          95.04,
          97.14,
          100.8,
          93.99,
          111.54,
          129.62,
          122.28,
          107.35,
          108.92,
          120.45,
          117.04,
          120.18,
          132.75,
          131.7,
          119.91,
          116.24,
          111.26,
          119.64,
          112.3,
          107.32,
          117.02,
          118.06,
          108.63,
          110.98,
          113.08,
          109.15,
          121.46,
          141.64,
          121.98,
          92.37,
          101.8,
          116.21,
          108.87,
          107.04,
          109.66,
          118.83,
          118.04,
          110.18,
          112.01,
          104.41,
          93.14,
          88.42,
          94.97,
          100.73,
          105.18,
          102.82,
          91.29,
          102.82,
          96.0,
          90.24,
          94.69,
          97.57,
          86.3,
          99.93,
          121.68,
          130.84,
          115.12,
          95.2,
          102.8,
          103.58,
          91.0,
          99.13,
          97.55,
          82.35,
          96.76,
          77.1,
          81.82,
          86.79,
          113.52,
          103.3,
          71.59,
          93.86,
          89.14,
          77.09,
          76.04,
          67.91,
          77.08,
          84.94,
          83.63,
          65.02,
          69.21,
          78.65,
          77.86,
          79.95,
          77.07,
          87.02,
          97.77,
          84.66,
          75.75,
          68.15,
          75.74,
          65.78,
          81.77,
          76.79,
          72.07,
          58.18,
          52.93,
          45.59,
          37.99,
          51.35,
          63.41,
          62.36,
          51.61,
          52.4,
          69.69,
          72.05,
          55.27,
          47.67,
          52.91,
          69.94,
          72.82,
          58.15,
          69.94,
          79.11,
          61.55,
          36.91,
          50.54,
          59.71,
          36.91,
          40.58,
          61.54,
          58.39,
          56.82,
          35.06,
          42.4,
          60.74,
          50.52,
          46.06,
          56.28,
          42.13,
          35.84,
          51.3,
          53.39,
          63.09,
          56.53,
          31.11,
          44.48,
          53.91,
          62.82,
          54.95,
          49.97,
          44.73,
          30.84,
          37.65,
          46.56,
          53.63,
          55.99,
          48.12,
          55.98,
          47.07,
          45.23,
          50.73,
          39.73,
          27.67,
          36.84,
          50.47,
          54.66,
          44.96,
          45.48,
          47.84,
          43.12,
          51.24,
          56.22,
          50.19,
          37.87,
          35.77,
          56.21,
          50.71,
          22.93,
          30.0,
          51.75,
          52.53,
          47.82,
          41.0,
          33.4,
          42.31,
          40.47,
          29.99,
          32.34,
          31.56,
          32.34,
          25.52,
          33.38,
          29.97,
          33.64,
          40.98,
          33.9,
          26.82,
          37.56,
          44.38,
          35.46,
          27.34,
          55.11,
          52.49,
          30.74,
          32.31,
          38.34,
          47.24,
          50.39,
          39.64,
          23.92,
          24.7,
          23.13,
          27.32,
          23.12,
          16.04,
          11.85,
          18.92,
          34.91,
          27.83,
          29.66,
          30.45,
          26.78,
          29.39,
          26.77,
          30.96,
          36.47,
          38.3,
          34.89,
          32.53,
          22.31,
          12.35,
          17.59,
          28.59,
          26.23,
          19.94,
          29.37,
          33.56,
          25.44,
          33.3,
          37.75,
          34.34,
          37.74,
          26.47,
          21.49,
          18.34,
          11.27,
          18.34,
          21.48,
          29.61,
          20.7,
          18.07,
          14.14,
          21.48,
          31.17,
          21.21,
          18.06,
          17.27,
          20.42,
          24.61,
          12.82,
          7.84,
          17.0,
          21.72,
          23.03,
          7.3,
          23.55,
          37.44,
          27.21,
          19.35,
          13.06,
          8.08,
          19.61,
          22.75,
          17.51,
          25.37,
          18.03,
          9.9,
          19.86,
          25.1,
          29.55,
          24.31,
          17.23,
          16.18,
          18.8,
          21.68,
          14.34,
          9.1,
          13.81,
          19.84,
          25.08,
          22.98,
          22.19,
          25.07,
          22.98,
          16.16,
          18.78,
          21.66,
          13.01,
          10.39,
          15.1,
          13.27,
          12.48,
          15.62,
          19.03,
          20.6,
          15.62,
          20.59,
          27.66,
          18.49,
          7.22,
          17.96,
          12.46,
          20.84,
          11.14,
          6.42,
          9.04,
          14.02,
          12.18,
          9.3,
          16.89,
          18.2,
          14.0,
          6.66,
          11.38,
          13.74,
          12.42,
          8.23,
          12.16,
          13.73,
          6.39,
          0.36,
          5.08,
          8.74,
          9.26,
          13.19,
          9.52,
          13.71,
          5.32,
          13.18,
          18.68,
          15.8,
          8.99,
          20.78,
          19.46,
          8.46,
          13.96,
          12.65,
          11.34,
          10.28,
          11.07,
          13.69,
          18.4,
          11.32,
          8.18,
          2.67,
          12.62,
          14.98,
          17.86,
          12.88,
          3.71,
          7.64,
          13.14,
          5.53,
          3.7,
          18.11,
          12.34,
          2.12,
          8.41,
          12.6,
          10.24,
          14.69,
          16.79,
          5.25,
          3.42,
          17.04,
          12.32,
          2.62,
          3.14,
          5.24,
          2.61,
          5.49,
          7.33,
          5.75,
          12.56,
          15.18,
          18.59,
          12.3,
          2.6,
          3.38,
          9.15,
          2.33,
          5.73,
          14.12,
          9.66,
          5.2,
          3.63,
          5.46,
          9.13,
          5.98,
          3.36,
          1.0,
          4.92,
          9.9,
          4.66,
          0.99,
          11.73,
          15.92,
          7.27,
          4.91,
          13.82,
          15.91,
          12.24,
          13.82,
          7.52,
          12.5,
          4.64,
          0.18,
          2.54,
          9.09,
          5.42,
          2.79,
          0.43,
          4.09,
          0.42,
          4.08,
          6.96,
          11.15,
          5.39,
          2.76,
          4.33,
          5.38,
          9.05,
          4.33,
          0.0
        ]
      ]
    }
  },
  "23344-006": {
    "reaction": {
      "0": {
        "x4_code": "(55-CS-145(0,B-)56-BA-145,,PN/DE,,REL)",
        "0": {
          "code": [
            "55-CS-145",
            [
              "0,B-"
            ],
            "56-BA-145,,PN/DE,,REL"
          ],
          "type": null,
          "target": "55-CS-145",
          "process": "0,B-",
          "sf49": "56-BA-145,,PN/DE,,REL",
          "sf4": "56-BA-145",
          "sf5": null,
          "sf6": "PN/DE",
          "sf7": null,
          "sf8": "REL",
          "sf9": null
        },
        "type": null,
        "free_text": ""
      }
    },
    "extra_information": {
      "decay-data": {
        "0": [
          {
            "x4_code": "(55-CS-145,0.62SEC)",
            "free_txt": []
          }
        ]
      },
      "en-sec": {
        "0": [
          {
            "x4_code": "(E,N)",
            "free_txt": [
              " Energy of delayed neutrons."
            ]
          }
        ]
      },
      "err-analys": {
        "0": [
          {
            "x4_code": "(E-ERR-DIG)",
            "free_txt": [
              " Digitizing error of E ( X scale)"
            ]
          },
          {
            "x4_code": "(ERR-DIG)",
            "free_txt": [
              "    Digitizing error of DATA ( Y scale)",
              "Quantization errors (one pixel):",
              "scale X - 1.02 keV, scale Y - 0.262 arb.units."
            ]
          }
        ]
      },
      "status": {
        "0": [
          {
            "x4_code": "(CURVE)",
            "free_txt": [
              " Fig.29e of P,MAINZ-77,59,197"
            ]
          }
        ]
      }
    },
    "common": {
      "heads": [
        "E-ERR-DIG",
        "ERR-DIG"
      ],
      "units": [
        "KEV",
        "ARB-UNITS"
      ],
      "data": [
        [
          0.8
        ],
        [
          0.149
        ]
      ]
    },
    "data": {
      "heads": [
        "E-MIN",
        "E-MAX",
        "DATA"
      ],
      "units": [
        "KEV",
        "KEV",
        "ARB-UNITS"
      ],
      "data": [
        [
          null,
          24.55,
          26.26,
          27.99,
          30.17,
          32.46,
          34.45,
          36.46,
          38.4,
          40.33,
          42.31,
          45.79,
          48.16,
          49.51,
          51.43,
          53.99,
          56.15,
          58.71,
          59.15,
          61.11,
          63.52,
          65.54,
          67.17,
          69.47,
          72.2,
          74.22,
          75.86,
          77.85,
          80.16,
          81.67,
          83.83,
          85.44,
          86.6,
          89.28,
          93.93,
          95.57,
          98.4,
          99.95,
          101.89,
          104.1,
          106.06,
          106.76,
          109.67,
          111.23,
          113.41,
          116.31,
          118.98,
          120.32,
          122.27,
          123.38,
          126.48,
          128.48,
          131.29,
          134.01,
          135.42,
          138.0,
          140.05,
          141.54,
          144.12,
          146.02,
          147.95,
          150.31,
          153.51,
          154.17,
          156.03,
          158.19,
          160.26,
          162.13,
          164.54,
          166.51,
          168.5,
          171.04,
          171.73,
          174.09,
          176.33,
          177.97,
          179.62,
          182.86,
          185.95,
          187.36,
          189.86,
          191.47,
          194.12,
          195.78,
          199.16,
          200.97,
          202.78,
          205.05,
          206.15,
          208.57,
          210.86,
          212.75,
          215.22,
          216.98,
          219.0,
          220.01,
          221.03,
          222.5,
          224.67,
          226.76,
          227.74,
          229.55,
          232.52,
          234.26,
          236.39,
          238.05,
          240.86,
          242.88,
          244.83,
          246.31,
          248.69,
          250.57,
          252.22,
          253.99,
          256.87,
          258.24,
          260.26,
          261.69,
          264.23,
          266.27,
          268.26,
          270.02,
          271.75,
          273.87,
          276.16,
          278.06,
          279.85,
          281.01,
          283.63,
          286.27,
          287.48,
          290.11,
          292.51,
          294.83,
          296.3,
          298.77,
          301.42,
          303.65,
          305.93,
          307.96,
          309.97,
          312.77,
          314.34,
          316.2,
          317.97,
          320.48,
          322.73,
          324.44,
          325.97,
          328.51,
          330.71,
          332.37,
          334.9,
          335.72,
          338.53,
          342.42,
          344.99,
          346.79,
          348.99,
          350.08,
          352.02,
          353.45,
          355.59,
          358.06,
          360.5,
          362.17,
          364.34,
          366.41,
          368.44,
          370.22,
          371.89,
          373.94,
          376.3,
          377.6,
          380.08,
          381.18,
          383.11,
          385.51,
          388.2,
          389.57,
          391.48,
          393.59,
          395.9,
          398.1,
          400.19,
          403.25,
          404.12,
          407.13,
          409.2,
          411.34,
          413.35,
          415.21,
          417.83,
          419.88,
          421.17,
          422.63,
          424.89,
          426.19,
          428.5,
          430.57,
          432.92,
          435.51,
          437.06,
          439.42,
          441.26,
          444.66,
          446.83,
          449.13,
          451.17,
          452.5,
          456.31,
          459.21,
          460.77,
          462.87,
          465.14,
          467.29,
          469.09,
          470.98,
          472.65,
          474.75,
          477.62,
          480.5,
          482.77,
          484.68,
          487.14,
          488.99,
          490.79,
          493.11,
          495.43,
          498.33,
          500.74,
          502.64,
          506.07,
          508.25,
          511.28,
          512.25,
          514.47,
          516.87,
          518.96,
          520.2,
          522.14,
          524.28,
          526.75,
          528.55,
          530.67,
          532.2,
          535.21,
          537.15,
          538.42,
          540.91,
          542.35,
          544.09,
          545.46,
          548.35,
          550.79,
          552.3,
          554.35,
          556.38,
          557.35,
          559.37,
          561.46,
          562.93,
          565.55,
          567.83,
          570.47,
          571.9,
          573.99,
          576.58,
          578.39,
          579.74,
          581.79,
          583.88,
          586.92,
          588.47,
          591.93,
          593.88,
          595.94,
          599.26,
          601.11,
          603.61,
          606.5,
          608.51,
          609.56,
          612.03,
          614.1,
          617.21,
          619.16,
          621.74,
          623.39,
          625.91,
          627.83,
          629.66,
          632.69,
          635.82,
          638.36,
          640.5,
          642.08,
          643.63,
          645.75,
          648.24,
          649.65,
          652.23,
          654.16,
          655.48,
          657.11,
          659.86,
          662.58,
          664.59,
          666.49,
          668.07,
          669.45,
          671.72,
          673.91,
          675.8,
          678.26,
          679.43,
          681.85,
          683.91,
          685.59,
          687.19,
          689.2,
          690.82,
          693.38,
          695.01,
          697.26,
          699.29,
          701.07,
          702.47,
          705.46,
          707.89,
          709.47,
          711.16,
          714.76,
          717.31,
          719.33,
          721.2,
          722.48,
          724.92,
          727.67,
          729.35,
          731.41,
          733.97,
          735.53,
          737.67,
          739.71,
          741.67,
          743.22,
          745.22,
          749.34,
          751.04,
          752.94,
          755.22,
          757.82,
          759.56,
          761.6,
          763.47,
          765.45,
          766.14,
          768.68,
          770.52,
          772.59,
          775.34,
          777.4,
          778.88,
          781.29,
          783.02,
          785.24,
          787.53,
          790.54,
          792.43,
          794.66,
          796.67,
          798.73,
          801.29,
          802.22,
          803.69,
          806.61,
          808.67,
          809.41,
          811.01,
          814.36,
          817.55,
          820.0,
          821.12,
          822.58,
          824.94,
          827.0,
          830.75,
          832.94,
          835.82,
          837.03,
          838.74,
          841.43,
          843.38,
          844.41,
          845.8,
          847.96,
          849.86,
          851.72,
          853.39,
          855.53,
          857.5,
          859.22,
          860.78,
          862.5,
          864.67,
          866.81,
          868.67,
          870.62,
          871.75,
          875.28,
          878.81,
          881.28,
          882.36,
          885.53,
          888.76,
          890.69,
          892.28,
          894.85,
          895.84,
          898.51,
          901.23,
          904.6,
          906.3,
          908.87,
          911.38,
          914.49,
          916.85,
          919.25,
          921.59,
          925.32,
          927.47,
          929.67,
          932.17,
          935.79,
          940.33,
          942.83,
          944.89,
          946.96,
          948.97,
          950.99,
          952.83,
          955.83,
          959.77,
          961.9,
          964.09,
          965.68,
          967.75,
          970.13,
          971.87,
          974.55,
          977.27,
          978.76,
          979.7,
          982.27,
          983.68,
          986.07,
          988.24,
          991.59,
          994.53,
          998.35,
          999.5,
          1002.0,
          1004.1,
          1006.8,
          1008.2,
          1010.8,
          1013.9,
          1015.4,
          1018.45,
          1020.25,
          1022.6,
          1024.35,
          1026.8,
          1029.55,
          1031.9,
          1033.85,
          1036.1,
          1037.9,
          1039.9,
          1042.25,
          1045.35,
          1050.4,
          1051.9,
          1054.2,
          1057.15,
          1059.3,
          1061.05,
          1064.65,
          1068.0,
          1069.8,
          1072.05,
          1074.2,
          1075.65,
          1078.15,
          1081.1,
          1082.3,
          1084.45,
          1086.3,
          1088.75,
          1090.95,
          1093.55,
          1097.0,
          1099.85,
          1101.55,
          1105.2,
          1107.1
        ],
        [
          24.55,
          26.26,
          27.99,
          30.17,
          32.46,
          34.45,
          36.46,
          38.4,
          40.33,
          42.31,
          45.79,
          48.16,
          49.51,
          51.43,
          53.99,
          56.15,
          58.71,
          59.15,
          61.11,
          63.52,
          65.54,
          67.17,
          69.47,
          72.2,
          74.22,
          75.86,
          77.85,
          80.16,
          81.67,
          83.83,
          85.44,
          86.6,
          89.28,
          93.93,
          95.57,
          98.4,
          99.95,
          101.89,
          104.1,
          106.06,
          106.76,
          109.67,
          111.23,
          113.41,
          116.31,
          118.98,
          120.32,
          122.27,
          123.38,
          126.48,
          128.48,
          131.29,
          134.01,
          135.42,
          138.0,
          140.05,
          141.54,
          144.12,
          146.02,
          147.95,
          150.31,
          153.51,
          154.17,
          156.03,
          158.19,
          160.26,
          162.13,
          164.54,
          166.51,
          168.5,
          171.04,
          171.73,
          174.09,
          176.33,
          177.97,
          179.62,
          182.86,
          185.95,
          187.36,
          189.86,
          191.47,
          194.12,
          195.78,
          199.16,
          200.97,
          202.78,
          205.05,
          206.15,
          208.57,
          210.86,
          212.75,
          215.22,
          216.98,
          219.0,
          220.01,
          221.03,
          222.5,
          224.67,
          226.76,
          227.74,
          229.55,
          232.52,
          234.26,
          236.39,
          238.05,
          240.86,
          242.88,
          244.83,
          246.31,
          248.69,
          250.57,
          252.22,
          253.99,
          256.87,
          258.24,
          260.26,
          261.69,
          264.23,
          266.27,
          268.26,
          270.02,
          271.75,
          273.87,
          276.16,
          278.06,
          279.85,
          281.01,
          283.63,
          286.27,
          287.48,
          290.11,
          292.51,
          294.83,
          296.3,
          298.77,
          301.42,
          303.65,
          305.93,
          307.96,
          309.97,
          312.77,
          314.34,
          316.2,
          317.97,
          320.48,
          322.73,
          324.44,
          325.97,
          328.51,
          330.71,
          332.37,
          334.9,
          335.72,
          338.53,
          342.42,
          344.99,
          346.79,
          348.99,
          350.08,
          352.02,
          353.45,
          355.59,
          358.06,
          360.5,
          362.17,
          364.34,
          366.41,
          368.44,
          370.22,
          371.89,
          373.94,
          376.3,
          377.6,
          380.08,
          381.18,
          383.11,
          385.51,
          388.2,
          389.57,
          391.48,
          393.59,
          395.9,
          398.1,
          400.19,
          403.25,
          404.12,
          407.13,
          409.2,
          411.34,
          413.35,
          415.21,
          417.83,
          419.88,
          421.17,
          422.63,
          424.89,
          426.19,
          428.5,
          430.57,
          432.92,
          435.51,
          437.06,
          439.42,
          441.26,
          444.66,
          446.83,
          449.13,
          451.17,
          452.5,
          456.31,
          459.21,
          460.77,
          462.87,
          465.14,
          467.29,
          469.09,
          470.98,
          472.65,
          474.75,
          477.62,
          480.5,
          482.77,
          484.68,
          487.14,
          488.99,
          490.79,
          493.11,
          495.43,
          498.33,
          500.74,
          502.64,
          506.07,
          508.25,
          511.28,
          512.25,
          514.47,
          516.87,
          518.96,
          520.2,
          522.14,
          524.28,
          526.75,
          528.55,
          530.67,
          532.2,
          535.21,
          537.15,
          538.42,
          540.91,
          542.35,
          544.09,
          545.46,
          548.35,
          550.79,
          552.3,
          554.35,
          556.38,
          557.35,
          559.37,
          561.46,
          562.93,
          565.55,
          567.83,
          570.47,
          571.9,
          573.99,
          576.58,
          578.39,
          579.74,
          581.79,
          583.88,
          586.92,
          588.47,
          591.93,
          593.88,
          595.94,
          599.26,
          601.11,
          603.61,
          606.5,
          608.51,
          609.56,
          612.03,
          614.1,
          617.21,
          619.16,
          621.74,
          623.39,
          625.91,
          627.83,
          629.66,
          632.69,
          635.82,
          638.36,
          640.5,
          642.08,
          643.63,
          645.75,
          648.24,
          649.65,
          652.23,
          654.16,
          655.48,
          657.11,
          659.86,
          662.58,
          664.59,
          666.49,
          668.07,
          669.45,
          671.72,
          673.91,
          675.8,
          678.26,
          679.43,
          681.85,
          683.91,
          685.59,
          687.19,
          689.2,
          690.82,
          693.38,
          695.01,
          697.26,
          699.29,
          701.07,
          702.47,
          705.46,
          707.89,
          709.47,
          711.16,
          714.76,
          717.31,
          719.33,
          721.2,
          722.48,
          724.92,
          727.67,
          729.35,
          731.41,
          733.97,
          735.53,
          737.67,
          739.71,
          741.67,
          743.22,
          745.22,
          749.34,
          751.04,
          752.94,
          755.22,
          757.82,
          759.56,
          761.6,
          763.47,
          765.45,
          766.14,
          768.68,
          770.52,
          772.59,
          775.34,
          777.4,
          778.88,
          781.29,
          783.02,
          785.24,
          787.53,
          790.54,
          792.43,
          794.66,
          796.67,
          798.73,
          801.29,
          802.22,
          803.69,
          806.61,
          808.67,
          809.41,
          811.01,
          814.36,
          817.55,
          820.0,
          821.12,
          822.58,
          824.94,
          827.0,
          830.75,
          832.94,
          835.82,
          837.03,
          838.74,
          841.43,
          843.38,
          844.41,
          845.8,
          847.96,
          849.86,
          851.72,
          853.39,
          855.53,
          857.5,
          859.22,
          860.78,
          862.5,
          864.67,
          866.81,
          868.67,
          870.62,
          871.75,
          875.28,
          878.81,
          881.28,
          882.36,
          885.53,
          888.76,
          890.69,
          892.28,
          894.85,
          895.84,
          898.51,
          901.23,
          904.6,
          906.3,
          908.87,
          911.38,
          914.49,
          916.85,
          919.25,
          921.59,
          925.32,
          927.47,
          929.67,
          932.17,
          935.79,
          940.33,
          942.83,
          944.89,
          946.96,
          948.97,
          950.99,
          952.83,
          955.83,
          959.77,
          961.9,
          964.09,
          965.68,
          967.75,
          970.13,
          971.87,
          974.55,
          977.27,
          978.76,
          979.7,
          982.27,
          983.68,
          986.07,
          988.24,
          991.59,
          994.53,
          998.35,
          999.5,
          1002.0,
          1004.1,
          1006.8,
          1008.2,
          1010.8,
          1013.9,
          1015.4,
          1018.45,
          1020.25,
          1022.6,
          1024.35,
          1026.8,
          1029.55,
          1031.9,
          1033.85,
          1036.1,
          1037.9,
          1039.9,
          1042.25,
          1045.35,
          1050.4,
          1051.9,
          1054.2,
          1057.15,
          1059.3,
          1061.05,
          1064.65,
          1068.0,
          1069.8,
          1072.05,
          1074.2,
          1075.65,
          1078.15,
          1081.1,
          1082.3,
          1084.45,
          1086.3,
          1088.75,
          1090.95,
          1093.55,
          1097.0,
          1099.85,
          1101.55,
          1105.2,
          1107.1,
          1109.2
        ],
        [
          0.331,
          14.083,
          28.883,
          40.541,
          59.272,
          62.81,
          62.289,
          65.042,
          69.629,
          73.691,
          74.219,
          79.987,
          88.632,
          95.051,
          98.328,
          92.309,
          87.074,
          90.48,
          92.708,
          97.034,
          103.585,
          97.562,
          95.864,
          116.425,
          123.24,
          117.88,
          112.64,
          121.415,
          132.16,
          122.73,
          120.38,
          115.665,
          106.63,
          103.885,
          99.309,
          93.682,
          117.52,
          135.59,
          125.12,
          120.15,
          131.15,
          147.78,
          143.2,
          143.99,
          130.245,
          112.18,
          118.6,
          128.03,
          125.15,
          119.655,
          120.575,
          122.02,
          96.618,
          105.525,
          107.625,
          101.21,
          106.19,
          103.18,
          102.79,
          114.45,
          110.785,
          86.17,
          97.173,
          117.21,
          112.37,
          105.04,
          108.05,
          119.58,
          119.32,
          125.48,
          122.34,
          124.96,
          151.155,
          139.9,
          132.565,
          130.21,
          120.92,
          113.33,
          116.34,
          123.155,
          119.62,
          115.96,
          109.55,
          104.05,
          124.61,
          123.175,
          99.345,
          101.97,
          91.362,
          67.924,
          69.368,
          79.716,
          74.743,
          59.426,
          75.532,
          81.559,
          97.276,
          86.41,
          84.317,
          81.832,
          87.203,
          100.565,
          93.889,
          81.582,
          84.728,
          70.196,
          60.51,
          70.071,
          68.372,
          74.006,
          81.866,
          86.846,
          70.478,
          66.03,
          83.974,
          79.524,
          85.288,
          87.125,
          84.77,
          86.214,
          87.397,
          110.185,
          113.855,
          102.465,
          90.814,
          113.865,
          112.16,
          101.3,
          104.84,
          91.221,
          88.735,
          82.846,
          55.48,
          57.841,
          59.938,
          63.871,
          49.207,
          46.855,
          72.001,
          91.122,
          73.45,
          67.82,
          69.918,
          82.231,
          92.448,
          84.333,
          73.205,
          67.838,
          72.817,
          67.583,
          58.156,
          55.017,
          58.162,
          72.832,
          78.076,
          87.772,
          75.464,
          63.42,
          60.541,
          57.401,
          67.75,
          65.262,
          58.065,
          71.294,
          66.846,
          57.288,
          55.328,
          53.498,
          55.596,
          74.718,
          86.375,
          74.2,
          57.047,
          49.325,
          62.422,
          85.996,
          71.333,
          52.478,
          57.983,
          66.365,
          68.726,
          59.301,
          43.459,
          44.903,
          37.573,
          44.124,
          49.627,
          47.273,
          46.228,
          37.719,
          47.544,
          52.916,
          40.218,
          50.959,
          60.52,
          55.547,
          40.358,
          30.933,
          60.663,
          71.929,
          76.91,
          66.042,
          31.604,
          36.715,
          47.719,
          49.95,
          35.81,
          26.384,
          34.505,
          42.892,
          56.516,
          55.603,
          52.331,
          49.977,
          31.255,
          39.77,
          51.035,
          51.953,
          37.945,
          46.199,
          53.406,
          59.958,
          32.59,
          26.177,
          38.752,
          41.635,
          59.188,
          60.761,
          33.395,
          29.471,
          44.011,
          40.086,
          56.068,
          71.261,
          55.944,
          31.718,
          38.27,
          44.56,
          33.038,
          24.398,
          40.901,
          59.239,
          46.669,
          35.017,
          38.425,
          34.107,
          41.313,
          42.232,
          62.926,
          46.691,
          25.871,
          27.839,
          38.71,
          41.989,
          46.706,
          43.304,
          44.355,
          43.047,
          49.074,
          43.315,
          44.627,
          46.856,
          38.086,
          24.733,
          28.532,
          32.334,
          23.694,
          28.148,
          42.034,
          44.132,
          40.075,
          38.377,
          40.343,
          36.158,
          47.292,
          43.629,
          44.811,
          20.065,
          16.009,
          23.215,
          29.243,
          25.055,
          26.236,
          30.823,
          22.445,
          24.807,
          29.002,
          21.408,
          17.352,
          23.511,
          27.442,
          40.017,
          28.499,
          32.955,
          28.506,
          22.747,
          23.928,
          20.131,
          16.339,
          24.198,
          25.119,
          20.014,
          34.945,
          37.698,
          25.785,
          18.849,
          9.685,
          20.034,
          21.215,
          15.194,
          33.529,
          37.986,
          19.13,
          6.826,
          25.422,
          37.081,
          35.906,
          34.599,
          22.291,
          27.272,
          24.13,
          19.288,
          21.78,
          9.996,
          1.358,
          10.527,
          22.969,
          21.794,
          27.298,
          31.232,
          21.804,
          16.7,
          18.147,
          15.006,
          18.939,
          28.631,
          40.42,
          36.627,
          22.618,
          22.358,
          19.48,
          21.056,
          15.689,
          11.109,
          14.778,
          16.876,
          12.689,
          19.634,
          7.198,
          4.32,
          18.203,
          26.59,
          12.711,
          8.523,
          10.884,
          22.542,
          15.34,
          5.914,
          15.346,
          22.552,
          11.687,
          4.357,
          8.288,
          14.054,
          26.889,
          18.773,
          7.253,
          8.566,
          14.595,
          5.954,
          6.874,
          5.699,
          1.251,
          8.325,
          10.161,
          16.058,
          14.227,
          4.145,
          1.004,
          9.915,
          3.372,
          7.173,
          2.853,
          5.213,
          12.55,
          11.899,
          2.868,
          17.801,
          25.401,
          16.366,
          8.773,
          1.313,
          5.244,
          4.46,
          10.224,
          4.466,
          10.23,
          17.829,
          10.759,
          6.049,
          8.802,
          22.686,
          20.462,
          12.345,
          5.932,
          1.22,
          8.426,
          11.965,
          6.859,
          7.65,
          8.834,
          11.719,
          8.97,
          2.82,
          17.099,
          21.555,
          18.415,
          17.371,
          18.419,
          12.662,
          4.416,
          12.41,
          4.424,
          2.987,
          4.169,
          1.424,
          9.023,
          15.313,
          1.435,
          15.845,
          10.873,
          2.888,
          4.594,
          1.456,
          2.773,
          4.61,
          2.911,
          1.473,
          2.0,
          2.527,
          10.912,
          12.618,
          17.732,
          13.413,
          6.738,
          3.204,
          1.505,
          8.318,
          21.154,
          14.742,
          6.496,
          8.201,
          11.476,
          9.908,
          14.494,
          21.439,
          15.156,
          1.803,
          6.129,
          17.005,
          10.066,
          11.51,
          9.942,
          1.565,
          7.984,
          5.237,
          1.575,
          4.851,
          3.416,
          13.24,
          20.447,
          10.758,
          13.774,
          5.266,
          14.961,
          17.32,
          8.943,
          16.148,
          19.032,
          5.023,
          1.492,
          3.202,
          5.038,
          15.78,
          19.189,
          14.217,
          3.742,
          1.784,
          10.301,
          21.042,
          10.569,
          3.763,
          8.217,
          10.578,
          13.988,
          4.037,
          1.421,
          6.662,
          12.428,
          5.359,
          1.697,
          6.809,
          14.54,
          7.209,
          1.714,
          9.051,
          3.945
        ]
      ]
    }
  },
  "23344-007": {
    "reaction": {
      "0": {
        "x4_code": "(55-CS-146(0,B-)56-BA-146,,PN/DE,,REL)",
        "0": {
          "code": [
            "55-CS-146",
            [
              "0,B-"
            ],
            "56-BA-146,,PN/DE,,REL"
          ],
          "type": null,
          "target": "55-CS-146",
          "process": "0,B-",
          "sf49": "56-BA-146,,PN/DE,,REL",
          "sf4": "56-BA-146",
          "sf5": null,
          "sf6": "PN/DE",
          "sf7": null,
          "sf8": "REL",
          "sf9": null
        },
        "type": null,
        "free_text": ""
      }
    },
    "extra_information": {
      "decay-data": {
        "0": [
          {
            "x4_code": "(55-CS-146,0.33SEC)",
            "free_txt": []
          }
        ]
      },
      "en-sec": {
        "0": [
          {
            "x4_code": "(E,N)",
            "free_txt": [
              " Energy of delayed neutrons."
            ]
          }
        ]
      },
      "err-analys": {
        "0": [
          {
            "x4_code": "(E-ERR-DIG)",
            "free_txt": [
              " Digitizing error of E ( X scale)"
            ]
          },
          {
            "x4_code": "(ERR-DIG)",
            "free_txt": [
              "    Digitizing error of DATA ( Y scale)",
              "Quantization errors (one pixel):",
              "scale X - 0.856 keV, scale Y - 0.0560 arb.units."
            ]
          }
        ]
      },
      "status": {
        "0": [
          {
            "x4_code": "(CURVE)",
            "free_txt": [
              " Fig.29f of P,MAINZ-77,59,197"
            ]
          }
        ]
      }
    },
    "common": {
      "heads": [
        "E-ERR-DIG",
        "ERR-DIG"
      ],
      "units": [
        "KEV",
        "ARB-UNITS"
      ],
      "data": [
        [
          0.336
        ],
        [
          0.0364
        ]
      ]
    },
    "data": {
      "heads": [
        "E-MIN",
        "E-MAX",
        "DATA"
      ],
      "units": [
        "KEV",
        "KEV",
        "ARB-UNITS"
      ],
      "data": [
        [
          null,
          22.339,
          24.37,
          28.206,
          30.772,
          34.208,
          36.796,
          39.786,
          43.201,
          45.787,
          49.204,
          52.608,
          55.608,
          58.621,
          60.355,
          64.209,
          66.778,
          70.231,
          73.251,
          76.248,
          79.243,
          80.966,
          84.404,
          87.815,
          91.655,
          94.239,
          97.23,
          100.635,
          104.055,
          108.32,
          112.595,
          116.46,
          119.02,
          122.02,
          124.575,
          127.99,
          130.575,
          134.015,
          137.455,
          143.02,
          146.88,
          148.61,
          150.765,
          154.62,
          158.045,
          160.62,
          164.05,
          167.03,
          170.035,
          173.9,
          176.9,
          179.485,
          182.065,
          185.07,
          187.64,
          190.65,
          194.06,
          197.475,
          200.895,
          203.445,
          206.445,
          209.435,
          211.98,
          214.995,
          217.595,
          221.425,
          223.945,
          226.52,
          230.0,
          234.31,
          236.855,
          239.405,
          242.805,
          245.37,
          248.385,
          251.415,
          254.855,
          257.845,
          261.24,
          264.235,
          265.995,
          269.42,
          272.375,
          275.775,
          278.765,
          282.22,
          285.25,
          287.39,
          290.815,
          293.84,
          297.69,
          300.22,
          303.215,
          306.235,
          308.795,
          311.795,
          315.64,
          318.2,
          320.785,
          323.37,
          326.8,
          329.37,
          332.39,
          335.39,
          338.825,
          342.255,
          344.82,
          347.835,
          350.83,
          354.275,
          357.27,
          360.22,
          363.195,
          366.19,
          368.32,
          371.295,
          375.595,
          377.76,
          380.76,
          387.64,
          389.375,
          392.385,
          395.395,
          398.395,
          401.8,
          405.22,
          408.22,
          410.365,
          412.955,
          416.39,
          419.36,
          423.225,
          426.235,
          428.8,
          432.21,
          434.79,
          437.815,
          440.83,
          444.665,
          446.78,
          450.235,
          453.23,
          456.215,
          458.8,
          462.65,
          466.07,
          468.625,
          471.63,
          473.36,
          476.805,
          480.23,
          483.215,
          486.22,
          489.65,
          492.205,
          494.76,
          497.755,
          501.63,
          505.06,
          508.505,
          510.665,
          513.23,
          514.95,
          517.94,
          521.795,
          525.22,
          528.205,
          530.765,
          532.91,
          536.77,
          539.755,
          543.165,
          545.3,
          548.74,
          551.75,
          554.765,
          557.775,
          561.2,
          564.205,
          567.185,
          571.03,
          573.625,
          575.345,
          578.76,
          581.76,
          584.75,
          587.755,
          590.75,
          593.295,
          596.285,
          599.295,
          601.865,
          604.865,
          608.295,
          611.73,
          614.3,
          617.29,
          620.275,
          624.14,
          626.725,
          631.01,
          633.155,
          635.705,
          639.135,
          645.135,
          648.12,
          650.7,
          654.125,
          656.7,
          660.14,
          662.7,
          666.135,
          670.0,
          672.13,
          674.25,
          678.095,
          681.115,
          683.705,
          686.7,
          690.095,
          693.52,
          696.11,
          698.69,
          701.7,
          705.14,
          708.14,
          711.555,
          714.095,
          716.655,
          719.675,
          722.255,
          725.66,
          729.505,
          732.545,
          736.0,
          738.975,
          741.535,
          744.525,
          747.505,
          750.07,
          753.075,
          756.065,
          759.055,
          761.635,
          765.075,
          767.655,
          770.66,
          774.075,
          776.2,
          779.2,
          782.21,
          786.075,
          788.625,
          791.6,
          795.46,
          797.615,
          800.635,
          804.51,
          807.5,
          810.92,
          814.355,
          816.92,
          819.48,
          822.475,
          825.875,
          828.415,
          831.845,
          834.845,
          837.01,
          839.6,
          843.045,
          846.05,
          849.045,
          852.045,
          855.475,
          857.615,
          861.035,
          864.04,
          867.475,
          871.32,
          874.755,
          882.055,
          884.62,
          888.47,
          891.44,
          894.85,
          897.44,
          900.02,
          903.45,
          906.455,
          910.305,
          912.0,
          915.425,
          918.84,
          921.835,
          924.0,
          927.01,
          930.865,
          933.43,
          936.86,
          939.42,
          941.975,
          944.97,
          947.96,
          950.515,
          953.95,
          956.985,
          959.985,
          963.405,
          965.995,
          969.005,
          972.84,
          975.815,
          978.375,
          981.37,
          984.795,
          987.81,
          991.255,
          994.675,
          997.24,
          1000.25,
          1002.35,
          1005.35,
          1008.35,
          1014.0,
          1017.4,
          1020.0,
          1022.5,
          1025.5,
          1028.95,
          1032.75,
          1035.3,
          1038.3,
          1041.3,
          1044.3,
          1047.7,
          1051.2,
          1055.45,
          1059.8,
          1062.8,
          1065.75,
          1067.9,
          1071.35,
          1074.35,
          1077.3,
          1080.35,
          1083.35,
          1086.8,
          1088.5,
          1091.9,
          1095.3,
          1097.9,
          1100.5,
          1103.9,
          1106.9,
          1110.8,
          1112.9,
          1116.8,
          1120.2,
          1122.75,
          1125.3,
          1128.75,
          1131.3,
          1134.35,
          1139.0,
          1141.6,
          1144.2,
          1148.9,
          1152.3,
          1157.9,
          1161.65,
          1164.7,
          1167.25,
          1170.7,
          1174.1,
          1177.15,
          1194.7,
          1198.1,
          1201.55,
          1204.55,
          1206.7,
          1208.85,
          1212.25,
          1217.8,
          1221.7,
          1224.7,
          1226.8,
          1229.8,
          1232.85,
          1237.55,
          1239.25,
          1241.8,
          1246.1,
          1248.25,
          1251.65,
          1255.1,
          1258.55,
          1261.1,
          1263.65,
          1266.15,
          1268.75,
          1272.2,
          1274.75,
          1277.75,
          1281.65,
          1284.25,
          1287.2,
          1289.35,
          1291.95,
          1294.9,
          1298.8,
          1302.2,
          1305.65,
          1308.2,
          1311.2,
          1314.6,
          1317.2
        ],
        [
          22.339,
          24.37,
          28.206,
          30.772,
          34.208,
          36.796,
          39.786,
          43.201,
          45.787,
          49.204,
          52.608,
          55.608,
          58.621,
          60.355,
          64.209,
          66.778,
          70.231,
          73.251,
          76.248,
          79.243,
          80.966,
          84.404,
          87.815,
          91.655,
          94.239,
          97.23,
          100.635,
          104.055,
          108.32,
          112.595,
          116.46,
          119.02,
          122.02,
          124.575,
          127.99,
          130.575,
          134.015,
          137.455,
          143.02,
          146.88,
          148.61,
          150.765,
          154.62,
          158.045,
          160.62,
          164.05,
          167.03,
          170.035,
          173.9,
          176.9,
          179.485,
          182.065,
          185.07,
          187.64,
          190.65,
          194.06,
          197.475,
          200.895,
          203.445,
          206.445,
          209.435,
          211.98,
          214.995,
          217.595,
          221.425,
          223.945,
          226.52,
          230.0,
          234.31,
          236.855,
          239.405,
          242.805,
          245.37,
          248.385,
          251.415,
          254.855,
          257.845,
          261.24,
          264.235,
          265.995,
          269.42,
          272.375,
          275.775,
          278.765,
          282.22,
          285.25,
          287.39,
          290.815,
          293.84,
          297.69,
          300.22,
          303.215,
          306.235,
          308.795,
          311.795,
          315.64,
          318.2,
          320.785,
          323.37,
          326.8,
          329.37,
          332.39,
          335.39,
          338.825,
          342.255,
          344.82,
          347.835,
          350.83,
          354.275,
          357.27,
          360.22,
          363.195,
          366.19,
          368.32,
          371.295,
          375.595,
          377.76,
          380.76,
          387.64,
          389.375,
          392.385,
          395.395,
          398.395,
          401.8,
          405.22,
          408.22,
          410.365,
          412.955,
          416.39,
          419.36,
          423.225,
          426.235,
          428.8,
          432.21,
          434.79,
          437.815,
          440.83,
          444.665,
          446.78,
          450.235,
          453.23,
          456.215,
          458.8,
          462.65,
          466.07,
          468.625,
          471.63,
          473.36,
          476.805,
          480.23,
          483.215,
          486.22,
          489.65,
          492.205,
          494.76,
          497.755,
          501.63,
          505.06,
          508.505,
          510.665,
          513.23,
          514.95,
          517.94,
          521.795,
          525.22,
          528.205,
          530.765,
          532.91,
          536.77,
          539.755,
          543.165,
          545.3,
          548.74,
          551.75,
          554.765,
          557.775,
          561.2,
          564.205,
          567.185,
          571.03,
          573.625,
          575.345,
          578.76,
          581.76,
          584.75,
          587.755,
          590.75,
          593.295,
          596.285,
          599.295,
          601.865,
          604.865,
          608.295,
          611.73,
          614.3,
          617.29,
          620.275,
          624.14,
          626.725,
          631.01,
          633.155,
          635.705,
          639.135,
          645.135,
          648.12,
          650.7,
          654.125,
          656.7,
          660.14,
          662.7,
          666.135,
          670.0,
          672.13,
          674.25,
          678.095,
          681.115,
          683.705,
          686.7,
          690.095,
          693.52,
          696.11,
          698.69,
          701.7,
          705.14,
          708.14,
          711.555,
          714.095,
          716.655,
          719.675,
          722.255,
          725.66,
          729.505,
          732.545,
          736.0,
          738.975,
          741.535,
          744.525,
          747.505,
          750.07,
          753.075,
          756.065,
          759.055,
          761.635,
          765.075,
          767.655,
          770.66,
          774.075,
          776.2,
          779.2,
          782.21,
          786.075,
          788.625,
          791.6,
          795.46,
          797.615,
          800.635,
          804.51,
          807.5,
          810.92,
          814.355,
          816.92,
          819.48,
          822.475,
          825.875,
          828.415,
          831.845,
          834.845,
          837.01,
          839.6,
          843.045,
          846.05,
          849.045,
          852.045,
          855.475,
          857.615,
          861.035,
          864.04,
          867.475,
          871.32,
          874.755,
          882.055,
          884.62,
          888.47,
          891.44,
          894.85,
          897.44,
          900.02,
          903.45,
          906.455,
          910.305,
          912.0,
          915.425,
          918.84,
          921.835,
          924.0,
          927.01,
          930.865,
          933.43,
          936.86,
          939.42,
          941.975,
          944.97,
          947.96,
          950.515,
          953.95,
          956.985,
          959.985,
          963.405,
          965.995,
          969.005,
          972.84,
          975.815,
          978.375,
          981.37,
          984.795,
          987.81,
          991.255,
          994.675,
          997.24,
          1000.25,
          1002.35,
          1005.35,
          1008.35,
          1014.0,
          1017.4,
          1020.0,
          1022.5,
          1025.5,
          1028.95,
          1032.75,
          1035.3,
          1038.3,
          1041.3,
          1044.3,
          1047.7,
          1051.2,
          1055.45,
          1059.8,
          1062.8,
          1065.75,
          1067.9,
          1071.35,
          1074.35,
          1077.3,
          1080.35,
          1083.35,
          1086.8,
          1088.5,
          1091.9,
          1095.3,
          1097.9,
          1100.5,
          1103.9,
          1106.9,
          1110.8,
          1112.9,
          1116.8,
          1120.2,
          1122.75,
          1125.3,
          1128.75,
          1131.3,
          1134.35,
          1139.0,
          1141.6,
          1144.2,
          1148.9,
          1152.3,
          1157.9,
          1161.65,
          1164.7,
          1167.25,
          1170.7,
          1174.1,
          1177.15,
          1194.7,
          1198.1,
          1201.55,
          1204.55,
          1206.7,
          1208.85,
          1212.25,
          1217.8,
          1221.7,
          1224.7,
          1226.8,
          1229.8,
          1232.85,
          1237.55,
          1239.25,
          1241.8,
          1246.1,
          1248.25,
          1251.65,
          1255.1,
          1258.55,
          1261.1,
          1263.65,
          1266.15,
          1268.75,
          1272.2,
          1274.75,
          1277.75,
          1281.65,
          1284.25,
          1287.2,
          1289.35,
          1291.95,
          1294.9,
          1298.8,
          1302.2,
          1305.65,
          1308.2,
          1311.2,
          1314.6,
          1317.2,
          null
        ],
        [
          1.5839,
          20.485,
          23.962,
          24.383,
          24.607,
          22.448,
          20.962,
          24.187,
          23.065,
          20.962,
          25.085,
          25.562,
          24.805,
          22.505,
          20.43,
          22.758,
          20.683,
          17.234,
          16.3085,
          17.346,
          17.038,
          15.327,
          14.739,
          18.412,
          17.655,
          15.692,
          19.086,
          20.123,
          20.264,
          24.218,
          21.386,
          22.676,
          22.9845,
          22.34,
          26.041,
          24.05,
          23.658,
          20.714,
          21.1345,
          20.826,
          20.714,
          17.377,
          18.022,
          17.181,
          17.854,
          16.116,
          17.49,
          19.537,
          16.172,
          17.687,
          15.5,
          15.051,
          13.284,
          14.182,
          12.612,
          11.967,
          16.005,
          14.407,
          17.52,
          18.6975,
          15.978,
          20.773,
          21.194,
          17.464,
          15.754,
          22.063,
          25.008,
          21.2785,
          14.576,
          16.343,
          18.923,
          20.382,
          23.747,
          22.036,
          20.55,
          15.811,
          17.129,
          18.083,
          23.579,
          18.84,
          13.484,
          19.261,
          22.458,
          24.702,
          23.636,
          18.925,
          17.271,
          19.458,
          16.935,
          14.018,
          17.916,
          22.403,
          19.122,
          18.253,
          20.777,
          17.861,
          22.348,
          20.525,
          19.516,
          16.599,
          18.787,
          16.235,
          14.945,
          15.562,
          12.73,
          15.535,
          13.516,
          11.693,
          14.021,
          8.9451,
          13.6,
          19.209,
          17.667,
          19.966,
          19.77,
          24.762,
          17.359,
          19.0975,
          17.135,
          13.461,
          12.396,
          11.19,
          10.517,
          10.854,
          14.668,
          12.4245,
          14.191,
          12.733,
          9.4524,
          11.528,
          13.827,
          10.771,
          11.304,
          11.584,
          13.828,
          9.4533,
          8.6121,
          6.7334,
          12.062,
          11.725,
          7.2105,
          12.987,
          9.0896,
          9.6786,
          9.2302,
          11.698,
          12.848,
          10.296,
          8.4173,
          6.9313,
          8.5017,
          9.5115,
          7.4084,
          9.4556,
          10.577,
          11.783,
          11.279,
          7.7455,
          9.6526,
          4.9135,
          6.2596,
          5.194,
          5.3624,
          6.5684,
          5.3347,
          7.3259,
          8.3075,
          8.8123,
          7.1579,
          7.4946,
          9.7942,
          10.832,
          11.365,
          8.4766,
          8.8693,
          5.28,
          6.542,
          5.5046,
          4.8317,
          9.0943,
          7.1315,
          3.7946,
          6.5428,
          4.8604,
          7.104,
          6.3469,
          5.2253,
          7.3286,
          10.413,
          9.2919,
          8.1142,
          8.7874,
          7.8621,
          8.0585,
          6.2079,
          7.8904,
          8.0588,
          10.218,
          6.5168,
          6.7133,
          6.1806,
          6.5453,
          9.4056,
          5.5921,
          9.0695,
          8.1443,
          6.8825,
          8.2287,
          5.7611,
          6.266,
          8.0608,
          3.5742,
          6.5467,
          6.2104,
          10.697,
          7.5847,
          6.6875,
          3.5187,
          7.3047,
          10.081,
          7.9219,
          5.4823,
          5.6506,
          2.8746,
          3.0149,
          3.0712,
          4.5294,
          9.3809,
          6.2403,
          5.4272,
          4.3056,
          9.3254,
          6.1847,
          1.1372,
          0.212,
          5.3159,
          3.0445,
          6.606,
          6.9988,
          7.1671,
          5.9333,
          8.7938,
          7.4759,
          6.7189,
          4.9524,
          3.9991,
          4.2515,
          7.2803,
          6.7195,
          7.1684,
          4.4204,
          4.5888,
          8.2063,
          8.6832,
          8.2347,
          4.9538,
          4.1967,
          1.5049,
          5.3187,
          2.795,
          3.8327,
          3.5804,
          5.5435,
          4.394,
          11.489,
          10.5355,
          10.704,
          9.33,
          7.1988,
          5.208,
          3.5816,
          3.3854,
          4.1427,
          3.1052,
          3.3017,
          4.0589,
          3.7226,
          2.7973,
          2.3487,
          4.5082,
          0.3021,
          1.0875,
          0.8352,
          2.7423,
          6.2758,
          5.6309,
          2.4622,
          3.6681,
          2.0979,
          1.2007,
          3.2198,
          4.8184,
          3.5286,
          7.3986,
          4.7066,
          2.5474,
          2.2391,
          2.8562,
          2.4637,
          2.9126,
          4.9316,
          5.8292,
          4.9039,
          6.6146,
          8.4094,
          4.3434,
          1.5674,
          4.0633,
          3.11,
          0.3619,
          0.9229,
          3.2225,
          5.9428,
          4.9333,
          6.6721,
          5.186,
          3.5317,
          1.9894,
          4.4854,
          2.3823,
          0.5596,
          7.2058,
          3.7847,
          0.504,
          1.7941,
          1.9344,
          2.0467,
          3.8135,
          5.5242,
          3.926,
          8.1885,
          12.143,
          8.0206,
          8.5254,
          9.7034,
          4.2072,
          5.7217,
          2.1885,
          3.731,
          1.2634,
          3.4227,
          1.9086,
          3.8156,
          5.6104,
          3.9,
          2.9747,
          0.8997,
          0.6193,
          0.3951,
          3.8726,
          2.2743,
          3.0876,
          2.5549,
          1.3492,
          0.9007,
          2.359,
          0.4242,
          0.3122,
          0.3964,
          3.5934,
          3.8179,
          1.21,
          1.5747,
          0.369,
          0.4533,
          2.136,
          0.4536,
          1.7717,
          0.3979,
          2.8658,
          8.2501,
          7.9978,
          4.9694,
          2.7262,
          5.3342,
          0.3992,
          1.7456,
          4.8304,
          0.6242,
          3.3724,
          1.8302,
          1.1013,
          0.5126,
          0.4847,
          1.2982,
          1.859,
          3.9905,
          1.2984,
          0.4854,
          0.9342,
          3.7104,
          6.9916,
          3.6827,
          2.0564,
          1.0751,
          0.3741,
          1.0193,
          0.8231,
          8.4787,
          6.4317,
          5.4223,
          2.8707,
          6.7126,
          8.6757,
          2.4223,
          1.3007,
          1.8617,
          1.2449,
          1.6656,
          2.1986,
          3.3205,
          1.9185,
          1.0772,
          0.7409,
          2.5919,
          1.4703,
          0.9095
        ]
      ]
    }
  }
}