{
  "bib": {
    "title": "Energy spectra of beta-delayed neutrons from 27-31Na decay.",
    "authors": [
      {
        "name": "W.Ziegert"
      },
      {
        "name": "L.C.Carraz"
      },
      {
        "name": "P.G.Hansen"
      },
      {
        "name": "B.Jonson"
      },
      {
        "name": "K.-L.Kratz"
      },
      {
        "name": "G.Nyman"
      },
      {
        "name": "H.Ohm"
      },
      {
        "name": "H.L.Ravn"
      },
      {
        "name": "A.Schroeder"
      }
    ],
    "institutes": [
      {
        "x4_code": "(2GERMNZ)",
        "free_txt": [
          " W.Ziegert,K.-L.Kratz,H.Ohm,A.Schroeder."
        ]
      },
      {
        "x4_code": "(2ZZZCER)",
        "free_txt": [
          " L.C.Carraz,B.Jonson,G.Nyman,H.L.Ravn."
        ]
      },
      {
        "x4_code": "(2DENAAU)",
        "free_txt": [
          " P.G.Hansen."
        ]
      }
    ],
    "references": {
      "0": [
        {
          "x4_code": "(R,CERN-81-09,327,1981)",
          "free_txt": [],
          "publication_year": "1981"
        },
        {
          "x4_code": "(P,MAINZ-78,20,1979)",
          "free_txt": [
            " In German. First author W.Ziegert.",
            " Na-27,29,31 delayed neutron spectra on figs."
          ],
          "publication_year": "1979"
        }
      ]
    },
    "facility": {
      "0": [
        {
          "x4_code": "(SYNCY,2ZZZCER)",
          "free_txt": [
            " Mass-separator ISOLDE facility at CERN",
            "synchrocyclotron ."
          ],
          "facility_type": "(SYNCY)",
          "insitute": "(2ZZZCER)"
        }
      ]
    },
    "history": [
      {
        "x4_code": "(20160325C)",
        "free_txt": [
          " M.M."
        ]
      },
      {
        "x4_code": "(20170620A)",
        "free_txt": [
          " M.M. Ref. P,MAINZ-78,20,1978 was added.",
          "Subent 002 data were re-digitized."
        ]
      },
      {
        "x4_code": "(20180429U)",
        "free_txt": [
          " SD: Year corrected in ref.(1978 -> 1979)."
        ]
      }
    ]
  },
  "23290-001": {
    "extra_information": {
      "correction": {
        "0": [
          {
            "x4_code": null,
            "free_txt": [
              "For detector efficiency."
            ]
          }
        ]
      },
      "detector": {
        "0": [
          {
            "x4_code": "(IOCH)",
            "free_txt": [
              " Three identical He-3-filled ionization chambers",
              "operated in parallel."
            ]
          }
        ]
      },
      "en-sec": {
        "0": [
          {
            "x4_code": "(E,N)",
            "free_txt": [
              " Delayed neutron energy"
            ]
          }
        ]
      },
      "facility": {
        "0": [
          {
            "x4_code": "(SYNCY,2ZZZCER)",
            "free_txt": [
              " Mass-separator ISOLDE facility at CERN",
              "synchrocyclotron ."
            ]
          }
        ]
      },
      "method": {
        "0": [
          {
            "x4_code": "(PHD)",
            "free_txt": [
              " Pulse-height spectra measured were unfolded for",
              "detector response to eliminate the contributions from",
              "wall effects, proton and He-3 recoil."
            ]
          }
        ]
      },
      "rel-ref": {
        "0": [
          {
            "x4_code": "(I,,H.Franz+,J,NIM,144,253,1977)",
            "free_txt": []
          }
        ]
      },
      "sample": {
        "0": [
          {
            "x4_code": null,
            "free_txt": [
              " Sodium isotopes were produced by bombarding a uranium",
              "carbide at 2000 degC with 600-MeV protons.",
              "After mass separation the isotope was collected on an",
              "Al foil in a thin tube situated in the center of a",
              "2x2x2 m paraffin/Cd shielding cabin."
            ]
          }
        ]
      }
    }
  },
  "23290-002": {
    "reaction": {
      "0": {
        "x4_code": "(11-NA-27(0,B-)12-MG-27,,PN/DE,,REL)",
        "0": {
          "code": [
            "11-NA-27",
            [
              "0,B-"
            ],
            "12-MG-27,,PN/DE,,REL"
          ],
          "type": null,
          "target": "11-NA-27",
          "process": "0,B-",
          "sf49": "12-MG-27,,PN/DE,,REL",
          "sf4": "12-MG-27",
          "sf5": null,
          "sf6": "PN/DE",
          "sf7": null,
          "sf8": "REL",
          "sf9": null
        },
        "type": null,
        "free_text": "Relative beta-delayed neutron spectrum, counts/8keV ."
      }
    },
    "extra_information": {
      "decay-data": {
        "0": [
          {
            "x4_code": "(11-NA-27,295.MSEC)",
            "free_txt": []
          }
        ]
      },
      "err-analys": {
        "0": [
          {
            "x4_code": null,
            "free_txt": [
              " Quantization errors (one pixel):",
              " scale X (energy) - 2.07 keV,",
              " scale Y (data) - 1.26 arb.units ."
            ]
          }
        ]
      },
      "status": {
        "0": [
          {
            "x4_code": "(CURVE)",
            "free_txt": [
              " Fig.1 of R,CERN-81-09,327,1981",
              " Digitized data received from consultants of",
              " beta-delayed neutron CRP were re-digitized.",
              " The same data on Fig.11a, P,MAINZ-78,20,1978 ."
            ]
          }
        ]
      }
    },
    "common": {
      "heads": [
        "EN-ERR-DIG",
        "ERR-DIG"
      ],
      "units": [
        "KEV",
        "ARB-UNITS"
      ],
      "data": [
        [
          0.752
        ],
        [
          0.356
        ]
      ]
    },
    "data": {
      "heads": [
        "E-MIN",
        "E-MAX",
        "DATA"
      ],
      "units": [
        "KEV",
        "KEV",
        "ARB-UNITS"
      ],
      "data": [
        [
          0.83,
          23.59,
          37.04,
          57.74,
          66.01,
          81.53,
          89.81,
          98.09,
          120.85,
          129.12,
          178.79,
          192.24,
          216.04,
          225.35,
          240.87,
          249.13,
          255.33,
          263.62,
          270.88,
          280.17,
          290.52,
          296.74,
          311.2,
          319.47,
          338.1,
          344.32,
          350.51,
          367.01,
          375.28,
          383.51,
          391.74,
          398.01,
          406.3,
          414.57,
          422.79,
          431.03,
          439.05,
          446.42,
          454.91,
          462.51,
          471.68,
          478.47,
          487.06,
          494.38,
          501.62,
          508.86,
          517.94,
          526.19,
          542.9,
          549.14,
          557.37,
          565.6,
          582.23,
          588.43,
          596.63,
          604.97,
          613.38,
          621.61,
          628.81,
          638.11,
          644.19,
          652.36,
          661.54,
          669.94,
          677.24,
          685.46,
          693.83,
          724.89,
          733.05,
          741.2,
          749.48,
          756.81,
          781.67,
          789.01,
          797.34,
          804.65,
          812.05,
          821.33,
          830.62,
          838.86,
          844.07,
          853.38,
          861.52,
          869.69,
          878.01,
          885.08,
          894.18,
          908.88,
          917.46,
          925.88,
          942.26,
          950.57,
          958.88,
          973.29,
          981.7,
          991.0,
          1006.35,
          1013.45,
          1022.6,
          1030.95,
          1037.25,
          1045.6,
          1054.05,
          1062.35,
          1069.7,
          1077.95,
          1087.1,
          1093.35,
          1101.7,
          1110.0,
          1134.85,
          1142.0,
          1149.3,
          1157.6,
          1165.75,
          1174.05,
          1182.25,
          1190.55,
          1197.7,
          1205.95,
          1213.45,
          1221.8,
          1231.05,
          1237.25,
          1244.5,
          1254.65,
          1262.85,
          1279.1,
          1294.25,
          1302.75,
          1310.25,
          1317.8,
          1326.05,
          1333.2,
          1341.65,
          1348.95,
          1357.2,
          1364.45,
          1372.75,
          1380.1,
          1389.4,
          1403.9,
          1412.15,
          1420.35,
          1452.45,
          1458.75,
          1470.15,
          1476.25,
          1484.6,
          1491.85,
          1500.05,
          1509.4,
          1516.6,
          1538.3,
          1547.55,
          1555.9,
          1572.5,
          1580.8,
          1588.05,
          1610.85,
          1619.15,
          1627.45,
          1666.75,
          1684.3,
          1714.35,
          1730.6,
          1737.85,
          1745.35,
          1753.65,
          1777.45,
          1801.2,
          1810.55,
          1818.8,
          1827.05,
          1857.15,
          1865.4,
          1873.6,
          1889.15,
          1899.5,
          1916.0,
          1938.9
        ],
        [
          23.59,
          37.04,
          57.74,
          66.01,
          81.53,
          89.81,
          98.09,
          120.85,
          129.12,
          178.79,
          192.24,
          216.04,
          225.35,
          240.87,
          249.13,
          255.33,
          263.62,
          270.88,
          280.17,
          290.52,
          296.74,
          311.2,
          319.47,
          338.1,
          344.32,
          350.51,
          367.01,
          375.28,
          383.51,
          391.74,
          398.01,
          406.3,
          414.57,
          422.79,
          431.03,
          439.05,
          446.42,
          454.91,
          462.51,
          471.68,
          478.47,
          487.06,
          494.38,
          501.62,
          508.86,
          517.94,
          526.19,
          542.9,
          549.14,
          557.37,
          565.6,
          582.23,
          588.43,
          596.63,
          604.97,
          613.38,
          621.61,
          628.81,
          638.11,
          644.19,
          652.36,
          661.54,
          669.94,
          677.24,
          685.46,
          693.83,
          724.89,
          733.05,
          741.2,
          749.48,
          756.81,
          781.67,
          789.01,
          797.34,
          804.65,
          812.05,
          821.33,
          830.62,
          838.86,
          844.07,
          853.38,
          861.52,
          869.69,
          878.01,
          885.08,
          894.18,
          908.88,
          917.46,
          925.88,
          942.26,
          950.57,
          958.88,
          973.29,
          981.7,
          991.0,
          1006.35,
          1013.45,
          1022.6,
          1030.95,
          1037.25,
          1045.6,
          1054.05,
          1062.35,
          1069.7,
          1077.95,
          1087.1,
          1093.35,
          1101.7,
          1110.0,
          1134.85,
          1142.0,
          1149.3,
          1157.6,
          1165.75,
          1174.05,
          1182.25,
          1190.55,
          1197.7,
          1205.95,
          1213.45,
          1221.8,
          1231.05,
          1237.25,
          1244.5,
          1254.65,
          1262.85,
          1279.1,
          1294.25,
          1302.75,
          1310.25,
          1317.8,
          1326.05,
          1333.2,
          1341.65,
          1348.95,
          1357.2,
          1364.45,
          1372.75,
          1380.1,
          1389.4,
          1403.9,
          1412.15,
          1420.35,
          1452.45,
          1458.75,
          1470.15,
          1476.25,
          1484.6,
          1491.85,
          1500.05,
          1509.4,
          1516.6,
          1538.3,
          1547.55,
          1555.9,
          1572.5,
          1580.8,
          1588.05,
          1610.85,
          1619.15,
          1627.45,
          1666.75,
          1684.3,
          1714.35,
          1730.6,
          1737.85,
          1745.35,
          1753.65,
          1777.45,
          1801.2,
          1810.55,
          1818.8,
          1827.05,
          1857.15,
          1865.4,
          1873.6,
          1889.15,
          1899.5,
          1916.0,
          1938.9,
          null
        ],
        [
          4.87,
          6.15,
          4.92,
          6.2,
          4.97,
          6.24,
          5.0,
          7.54,
          8.82,
          7.61,
          9.54,
          7.69,
          8.34,
          5.85,
          15.29,
          12.79,
          17.83,
          5.28,
          9.69,
          15.36,
          7.21,
          14.13,
          16.03,
          19.2,
          16.7,
          14.2,
          23.01,
          35.6,
          30.59,
          60.75,
          48.2,
          36.28,
          38.8,
          40.7,
          63.33,
          59.57,
          182.07,
          470.39,
          558.35,
          305.85,
          153.22,
          41.43,
          13.18,
          6.91,
          14.46,
          9.45,
          11.44,
          2.71,
          3.84,
          1.33,
          6.35,
          3.84,
          2.71,
          3.85,
          6.49,
          1.34,
          0.0,
          3.98,
          1.4,
          5.24,
          6.62,
          10.64,
          12.02,
          5.49,
          9.39,
          8.13,
          5.5,
          6.88,
          11.16,
          12.54,
          11.35,
          8.52,
          9.91,
          4.38,
          7.15,
          1.49,
          0.11,
          2.75,
          1.5,
          4.33,
          0.0,
          4.39,
          5.96,
          9.11,
          4.58,
          16.9,
          13.95,
          7.67,
          0.0,
          1.51,
          7.8,
          0.0,
          6.29,
          3.28,
          0.0,
          4.85,
          6.55,
          11.58,
          14.85,
          8.38,
          9.95,
          5.05,
          1.66,
          3.23,
          0.0,
          3.3,
          6.82,
          1.67,
          3.3,
          0.0,
          3.37,
          5.19,
          0.0,
          3.44,
          6.96,
          1.81,
          8.84,
          1.75,
          12.68,
          3.57,
          1.75,
          0.0,
          5.33,
          0.0,
          5.46,
          7.35,
          9.36,
          22.68,
          26.64,
          13.45,
          11.56,
          0.0,
          13.45,
          3.84,
          5.6,
          1.96,
          5.73,
          3.78,
          1.9,
          0.0,
          3.73,
          0.0,
          3.85,
          1.97,
          3.86,
          0.0,
          1.85,
          3.99,
          0.0,
          3.99,
          0.0,
          4.06,
          1.99,
          6.01,
          4.06,
          2.06,
          4.01,
          0.0,
          2.0,
          0.0,
          1.94,
          0.0,
          2.01,
          0.0,
          2.02,
          11.13,
          2.27,
          0.0,
          2.03,
          0.0,
          4.42,
          0.0,
          4.42,
          0.0,
          2.04,
          0.0,
          4.43,
          0.0,
          4.44,
          2.3,
          0.0
        ]
      ]
    }
  },
  "23290-003": {
    "reaction": {
      "0": {
        "x4_code": "(11-NA-28(0,B-)12-MG-28,,PN/DE,,REL)",
        "0": {
          "code": [
            "11-NA-28",
            [
              "0,B-"
            ],
            "12-MG-28,,PN/DE,,REL"
          ],
          "type": null,
          "target": "11-NA-28",
          "process": "0,B-",
          "sf49": "12-MG-28,,PN/DE,,REL",
          "sf4": "12-MG-28",
          "sf5": null,
          "sf6": "PN/DE",
          "sf7": null,
          "sf8": "REL",
          "sf9": null
        },
        "type": null,
        "free_text": "Relative beta-delayed neutron spectrum, counts/8keV ."
      }
    },
    "extra_information": {
      "decay-data": {
        "0": [
          {
            "x4_code": "(11-NA-28,31.MSEC)",
            "free_txt": []
          }
        ]
      },
      "status": {
        "0": [
          {
            "x4_code": "(CURVE)",
            "free_txt": [
              " Fig.3 of R,CERN-81-09,327,1981",
              " Digitized data were received from consultants of",
              " beta-delayed neutron CRP ."
            ]
          }
        ]
      }
    },
    "common": null,
    "data": {
      "heads": [
        "E",
        "DATA"
      ],
      "units": [
        "KEV",
        "ARB-UNITS"
      ],
      "data": [
        [
          8.22,
          25.02,
          44.42,
          62.53,
          72.86,
          85.76,
          90.84,
          102.1,
          111.1,
          123.1,
          132.2,
          144.0,
          151.8,
          162.1,
          171.2,
          182.8,
          190.6,
          198.3,
          212.4,
          221.0,
          231.0,
          240.5,
          249.9,
          260.4,
          272.2,
          287.7,
          289.0,
          349.4,
          362.4,
          367.4,
          382.7,
          393.3,
          400.1,
          410.4,
          420.8,
          433.8,
          444.1,
          450.5,
          460.7,
          472.4,
          481.5,
          491.9,
          502.4,
          511.3,
          521.7,
          530.8,
          542.4,
          551.6,
          560.7,
          571.0,
          581.3,
          590.3,
          601.9,
          610.7,
          621.0,
          630.1,
          643.3,
          648.6,
          658.8,
          670.7,
          679.5,
          692.7,
          703.1,
          709.2,
          723.5,
          730.3,
          741.8,
          752.2,
          760.0,
          769.0,
          779.3,
          791.0,
          798.4,
          811.2,
          820.5,
          828.5,
          838.9,
          849.4,
          859.6,
          871.2,
          880.4,
          892.0,
          902.2,
          909.9,
          917.6,
          932.0,
          943.7,
          951.6,
          961.9,
          972.3,
          984.0,
          990.4,
          1002.0,
          1010.0,
          1021.0,
          1032.0,
          1041.0,
          1054.0,
          1062.0,
          1073.0,
          1083.0,
          1094.0,
          1103.0,
          1112.0,
          1120.0,
          1132.0,
          1144.0,
          1152.0,
          1164.0,
          1170.0,
          1181.0,
          1194.0,
          1200.0,
          1213.0,
          1225.0,
          1244.0,
          1251.0,
          1261.0,
          1271.0,
          1282.0,
          1289.0,
          1302.0,
          1309.0,
          1319.0,
          1331.0,
          1337.0,
          1349.0,
          1362.0,
          1371.0,
          1379.0,
          1389.0,
          1401.0,
          1413.0,
          1429.0,
          1439.0,
          1448.0,
          1459.0,
          1468.0,
          1477.0,
          1489.0,
          1499.0,
          1511.0,
          1521.0,
          1529.0,
          1540.0,
          1553.0,
          1568.0,
          1588.0,
          1600.0,
          1606.0,
          1622.0,
          1633.0,
          1646.0,
          1657.0,
          1670.0,
          1685.0,
          1698.0,
          1709.0,
          1718.0,
          1727.0,
          1739.0,
          1744.0,
          1755.0,
          1768.0,
          1779.0,
          1786.0,
          1798.0,
          1807.0,
          1818.0,
          1825.0,
          1836.0,
          1850.0,
          1867.0,
          1880.0,
          1896.0,
          1904.0,
          1913.0,
          1925.0,
          1935.0,
          1944.0,
          1955.0,
          1966.0,
          1975.0,
          1983.0,
          1996.0,
          2004.0,
          2013.0,
          2024.0,
          2039.0,
          2058.0,
          2063.0,
          2074.0,
          2083.0,
          2091.0,
          2104.0,
          2113.0,
          2127.0,
          2142.0,
          2152.0,
          2166.0,
          2177.0,
          2189.0,
          2201.0,
          2211.0,
          2219.0,
          2232.0,
          2243.0,
          2252.0,
          2260.0,
          2273.0,
          2285.0,
          2292.0,
          2303.0,
          2315.0,
          2325.0,
          2333.0,
          2343.0,
          2351.0,
          2364.0,
          2370.0,
          2386.0,
          2403.0,
          2413.0,
          2422.0,
          2428.0,
          2443.0,
          2452.0,
          2472.0,
          2489.0,
          2498.0,
          2510.0,
          2526.0,
          2536.0,
          2549.0,
          2563.0,
          2572.0,
          2584.0,
          2590.0,
          2610.0,
          2620.0,
          2641.0
        ],
        [
          9.86,
          18.35,
          23.76,
          28.39,
          36.1,
          51.52,
          89.26,
          231.7,
          734.6,
          589.1,
          120.1,
          45.41,
          35.41,
          42.35,
          53.14,
          53.15,
          61.63,
          70.11,
          137.1,
          295.0,
          418.2,
          251.9,
          132.5,
          67.86,
          45.54,
          40.16,
          39.39,
          208.9,
          187.3,
          246.6,
          313.6,
          222.0,
          98.8,
          134.2,
          125.0,
          111.9,
          105.8,
          144.3,
          201.3,
          191.3,
          158.9,
          153.6,
          109.7,
          142.0,
          149.7,
          131.3,
          119.7,
          88.16,
          57.37,
          80.48,
          125.2,
          121.3,
          153.7,
          235.3,
          249.9,
          264.6,
          158.3,
          105.2,
          177.6,
          79.04,
          159.1,
          91.38,
          72.14,
          183.8,
          171.5,
          45.21,
          92.2,
          88.35,
          60.64,
          86.83,
          124.6,
          112.3,
          217.8,
          272.5,
          192.4,
          116.2,
          101.5,
          45.32,
          101.5,
          117.0,
          81.55,
          72.32,
          136.2,
          168.6,
          178.6,
          124.7,
          100.9,
          53.89,
          75.47,
          51.6,
          33.9,
          67.02,
          75.5,
          102.5,
          87.84,
          184.1,
          123.3,
          131.8,
          285.8,
          271.9,
          279.7,
          220.4,
          138.7,
          211.1,
          324.4,
          473.8,
          357.5,
          228.1,
          153.4,
          29.46,
          47.18,
          3.304,
          58.75,
          48.76,
          60.32,
          33.38,
          79.6,
          91.16,
          71.14,
          61.14,
          132.0,
          152.8,
          83.5,
          75.04,
          81.98,
          76.6,
          83.54,
          63.53,
          93.57,
          24.27,
          53.55,
          76.66,
          152.1,
          110.6,
          89.79,
          98.27,
          22.81,
          54.39,
          35.15,
          45.17,
          55.19,
          34.41,
          23.64,
          34.43,
          56.77,
          34.45,
          58.34,
          57.59,
          94.56,
          130.0,
          96.13,
          180.8,
          230.9,
          341.0,
          184.0,
          49.21,
          111.6,
          37.68,
          26.14,
          50.02,
          37.71,
          24.63,
          50.82,
          14.64,
          39.29,
          64.71,
          2.347,
          24.69,
          2.366,
          24.71,
          1.613,
          26.27,
          65.56,
          80.2,
          27.08,
          17.08,
          27.87,
          67.16,
          56.38,
          25.59,
          95.68,
          54.87,
          29.47,
          69.52,
          43.35,
          84.17,
          70.32,
          128.9,
          115.8,
          71.13,
          30.33,
          12.62,
          28.03,
          0.3193,
          14.19,
          43.46,
          -1.186,
          13.46,
          0.378,
          12.71,
          12.72,
          0.4143,
          75.12,
          30.47,
          44.34,
          -0.3146,
          45.13,
          15.88,
          28.21,
          44.39,
          -2.574,
          79.06,
          17.47,
          30.57,
          14.41,
          -1.757,
          63.71,
          49.08,
          16.75,
          32.93,
          16.01,
          30.65,
          -1.68,
          47.61,
          64.56,
          34.54,
          16.07,
          16.86,
          29.97,
          16.11,
          68.49,
          17.68,
          33.86,
          16.93,
          0.7754,
          16.19,
          0.02537,
          51.63,
          -1.49,
          34.71,
          -1.46
        ]
      ]
    }
  },
  "23290-004": {
    "reaction": {
      "0": {
        "x4_code": "(11-NA-29(0,B-)12-MG-29,,PN/DE,,REL)",
        "0": {
          "code": [
            "11-NA-29",
            [
              "0,B-"
            ],
            "12-MG-29,,PN/DE,,REL"
          ],
          "type": null,
          "target": "11-NA-29",
          "process": "0,B-",
          "sf49": "12-MG-29,,PN/DE,,REL",
          "sf4": "12-MG-29",
          "sf5": null,
          "sf6": "PN/DE",
          "sf7": null,
          "sf8": "REL",
          "sf9": null
        },
        "type": null,
        "free_text": "Relative beta-delayed neutron spectrum, counts/8keV ."
      }
    },
    "extra_information": {
      "decay-data": {
        "0": [
          {
            "x4_code": "(11-NA-29,43.MSEC)",
            "free_txt": []
          }
        ]
      },
      "err-analys": {
        "0": [
          {
            "x4_code": "(E-ERR-DIG)",
            "free_txt": [
              " Digitizing error of scale X ( energy);"
            ]
          },
          {
            "x4_code": "(ERR-DIG)",
            "free_txt": [
              " Digitizing error of scale Y ( data);",
              " reflect deviation of scale from linear low.",
              "   Quantization error (one pixel) :",
              "scale X - 1.86   keV ,",
              "scale Y - 0.852  arb.units ."
            ]
          }
        ]
      },
      "status": {
        "0": [
          {
            "x4_code": "(CURVE)",
            "free_txt": [
              " Fig.5 of R,CERN-81-09,327,1981",
              " Fig.11b, P,MAINZ-78,20,1978 - previous publication."
            ]
          }
        ]
      }
    },
    "common": {
      "heads": [
        "E-ERR-DIG",
        "ERR-DIG"
      ],
      "units": [
        "KEV",
        "ARB-UNITS"
      ],
      "data": [
        [
          2.43
        ],
        [
          0.916
        ]
      ]
    },
    "data": {
      "heads": [
        "E-MIN",
        "E-MAX",
        "DATA"
      ],
      "units": [
        "KEV",
        "KEV",
        "ARB-UNITS"
      ],
      "data": [
        [
          null,
          12.12,
          21.48,
          29.87,
          39.17,
          49.38,
          55.87,
          66.08,
          74.48,
          82.86,
          93.16,
          101.85,
          110.66,
          120.04,
          129.81,
          138.83,
          148.02,
          157.38,
          165.33,
          174.4,
          182.93,
          191.47,
          201.07,
          209.53,
          218.72,
          226.89,
          238.06,
          245.38,
          257.49,
          265.01,
          273.34,
          279.79,
          293.73,
          301.3,
          310.02,
          318.78,
          326.82,
          337.18,
          346.77,
          355.13,
          363.33,
          373.51,
          389.78,
          399.7,
          409.35,
          419.29,
          434.98,
          453.6,
          462.09,
          471.6,
          480.63,
          490.58,
          499.34,
          506.41,
          516.76,
          525.77,
          535.2,
          544.38,
          553.4,
          562.57,
          570.72,
          581.02,
          590.28,
          615.29,
          624.62,
          632.92,
          651.56,
          670.2,
          688.77,
          707.37,
          714.73,
          733.29,
          748.19,
          758.47,
          770.56,
          778.9,
          785.7,
          795.34,
          805.68,
          813.24,
          822.37,
          830.34,
          841.24,
          850.41,
          859.78,
          869.07,
          878.34,
          885.9,
          894.16,
          922.93,
          932.25,
          941.46,
          975.93,
          986.18,
          996.39,
          1005.65,
          1014.0,
          1022.55,
          1039.7,
          1049.55,
          1059.2,
          1068.0,
          1076.75,
          1085.15,
          1093.75,
          1106.0,
          1114.35,
          1121.5,
          1130.45,
          1141.4,
          1150.65,
          1164.65,
          1177.85,
          1186.35,
          1195.85,
          1205.1,
          1215.0,
          1224.05,
          1232.4,
          1240.8,
          1251.0,
          1261.25,
          1268.65,
          1286.3,
          1296.55,
          1312.3,
          1327.2,
          1334.7,
          1342.25,
          1353.25,
          1361.8,
          1370.35,
          1378.9,
          1387.25,
          1398.2,
          1407.4,
          1415.65,
          1433.2,
          1443.4,
          1452.75,
          1461.1,
          1469.45,
          1479.6,
          1506.7,
          1516.15,
          1524.6,
          1533.85,
          1543.65,
          1551.8,
          1561.45,
          1568.75,
          1577.75,
          1588.35,
          1597.0,
          1606.25,
          1613.8,
          1622.2,
          1632.35,
          1642.0,
          1651.5,
          1659.0,
          1669.1,
          1677.35,
          1686.4,
          1696.4,
          1706.05,
          1714.55,
          1721.9,
          1732.9,
          1741.55,
          1749.85,
          1758.0,
          1768.95,
          1777.25,
          1787.5,
          1795.95,
          1805.3,
          1812.75,
          1822.0,
          1832.15,
          1842.25,
          1850.5,
          1857.9,
          1867.3,
          1877.6,
          1886.8,
          1895.15,
          1904.55,
          1914.8,
          1922.2,
          1931.65,
          1938.2,
          1949.25,
          1957.6,
          1966.75,
          1985.3,
          1995.45,
          2001.95,
          2012.15,
          2020.6,
          2030.7,
          2038.15,
          2049.4,
          2058.7,
          2076.25,
          2093.9,
          2103.2,
          2111.55,
          2119.0,
          2129.2,
          2138.5,
          2155.2,
          2163.8,
          2175.0,
          2182.3,
          2191.5,
          2200.0,
          2209.35,
          2219.65,
          2227.05,
          2238.3,
          2245.9,
          2256.15,
          2263.7,
          2271.95,
          2282.05,
          2291.35,
          2299.6,
          2308.0,
          2317.45,
          2326.6,
          2336.55,
          2353.25,
          2364.35,
          2371.75,
          2382.1,
          2390.55,
          2400.65,
          2416.45,
          2426.65,
          2435.85,
          2444.3,
          2452.75,
          2463.75,
          2481.45,
          2489.85,
          2507.55,
          2516.0,
          2526.25,
          2535.5,
          2543.8,
          2553.05,
          2562.4,
          2571.75,
          2581.9,
          2590.2,
          2598.65,
          2609.0,
          2617.35,
          2625.7,
          2632.2,
          2644.2,
          2651.6,
          2661.0,
          2670.25,
          2681.3,
          2689.65,
          2697.05,
          2707.35,
          2715.7,
          2725.95,
          2732.5,
          2753.85,
          2761.25,
          2770.6,
          2778.1,
          2788.35,
          2797.65,
          2806.85,
          2815.15,
          2823.5,
          2834.6,
          2843.0,
          2856.95,
          2873.6,
          2882.95,
          2889.4,
          2897.8,
          2908.05,
          2915.45,
          2922.85,
          2934.05,
          2946.15,
          3008.35,
          3021.35,
          3027.85,
          3039.0
        ],
        [
          12.12,
          21.48,
          29.87,
          39.17,
          49.38,
          55.87,
          66.08,
          74.48,
          82.86,
          93.16,
          101.85,
          110.66,
          120.04,
          129.81,
          138.83,
          148.02,
          157.38,
          165.33,
          174.4,
          182.93,
          191.47,
          201.07,
          209.53,
          218.72,
          226.89,
          238.06,
          245.38,
          257.49,
          265.01,
          273.34,
          279.79,
          293.73,
          301.3,
          310.02,
          318.78,
          326.82,
          337.18,
          346.77,
          355.13,
          363.33,
          373.51,
          389.78,
          399.7,
          409.35,
          419.29,
          434.98,
          453.6,
          462.09,
          471.6,
          480.63,
          490.58,
          499.34,
          506.41,
          516.76,
          525.77,
          535.2,
          544.38,
          553.4,
          562.57,
          570.72,
          581.02,
          590.28,
          615.29,
          624.62,
          632.92,
          651.56,
          670.2,
          688.77,
          707.37,
          714.73,
          733.29,
          748.19,
          758.47,
          770.56,
          778.9,
          785.7,
          795.34,
          805.68,
          813.24,
          822.37,
          830.34,
          841.24,
          850.41,
          859.78,
          869.07,
          878.34,
          885.9,
          894.16,
          922.93,
          932.25,
          941.46,
          975.93,
          986.18,
          996.39,
          1005.65,
          1014.0,
          1022.55,
          1039.7,
          1049.55,
          1059.2,
          1068.0,
          1076.75,
          1085.15,
          1093.75,
          1106.0,
          1114.35,
          1121.5,
          1130.45,
          1141.4,
          1150.65,
          1164.65,
          1177.85,
          1186.35,
          1195.85,
          1205.1,
          1215.0,
          1224.05,
          1232.4,
          1240.8,
          1251.0,
          1261.25,
          1268.65,
          1286.3,
          1296.55,
          1312.3,
          1327.2,
          1334.7,
          1342.25,
          1353.25,
          1361.8,
          1370.35,
          1378.9,
          1387.25,
          1398.2,
          1407.4,
          1415.65,
          1433.2,
          1443.4,
          1452.75,
          1461.1,
          1469.45,
          1479.6,
          1506.7,
          1516.15,
          1524.6,
          1533.85,
          1543.65,
          1551.8,
          1561.45,
          1568.75,
          1577.75,
          1588.35,
          1597.0,
          1606.25,
          1613.8,
          1622.2,
          1632.35,
          1642.0,
          1651.5,
          1659.0,
          1669.1,
          1677.35,
          1686.4,
          1696.4,
          1706.05,
          1714.55,
          1721.9,
          1732.9,
          1741.55,
          1749.85,
          1758.0,
          1768.95,
          1777.25,
          1787.5,
          1795.95,
          1805.3,
          1812.75,
          1822.0,
          1832.15,
          1842.25,
          1850.5,
          1857.9,
          1867.3,
          1877.6,
          1886.8,
          1895.15,
          1904.55,
          1914.8,
          1922.2,
          1931.65,
          1938.2,
          1949.25,
          1957.6,
          1966.75,
          1985.3,
          1995.45,
          2001.95,
          2012.15,
          2020.6,
          2030.7,
          2038.15,
          2049.4,
          2058.7,
          2076.25,
          2093.9,
          2103.2,
          2111.55,
          2119.0,
          2129.2,
          2138.5,
          2155.2,
          2163.8,
          2175.0,
          2182.3,
          2191.5,
          2200.0,
          2209.35,
          2219.65,
          2227.05,
          2238.3,
          2245.9,
          2256.15,
          2263.7,
          2271.95,
          2282.05,
          2291.35,
          2299.6,
          2308.0,
          2317.45,
          2326.6,
          2336.55,
          2353.25,
          2364.35,
          2371.75,
          2382.1,
          2390.55,
          2400.65,
          2416.45,
          2426.65,
          2435.85,
          2444.3,
          2452.75,
          2463.75,
          2481.45,
          2489.85,
          2507.55,
          2516.0,
          2526.25,
          2535.5,
          2543.8,
          2553.05,
          2562.4,
          2571.75,
          2581.9,
          2590.2,
          2598.65,
          2609.0,
          2617.35,
          2625.7,
          2632.2,
          2644.2,
          2651.6,
          2661.0,
          2670.25,
          2681.3,
          2689.65,
          2697.05,
          2707.35,
          2715.7,
          2725.95,
          2732.5,
          2753.85,
          2761.25,
          2770.6,
          2778.1,
          2788.35,
          2797.65,
          2806.85,
          2815.15,
          2823.5,
          2834.6,
          2843.0,
          2856.95,
          2873.6,
          2882.95,
          2889.4,
          2897.8,
          2908.05,
          2915.45,
          2922.85,
          2934.05,
          2946.15,
          3008.35,
          3021.35,
          3027.85,
          3039.0,
          null
        ],
        [
          0.0,
          5.755,
          8.717,
          11.255,
          9.101,
          6.95,
          9.485,
          4.351,
          14.561,
          6.859,
          29.437,
          63.088,
          108.25,
          80.091,
          26.789,
          33.16,
          8.843,
          42.922,
          99.592,
          332.305,
          623.415,
          526.205,
          185.185,
          50.468,
          2.283,
          15.472,
          4.792,
          0.0,
          8.584,
          11.974,
          3.86,
          1.702,
          4.235,
          24.677,
          66.853,
          94.967,
          337.905,
          448.71,
          390.72,
          282.005,
          198.435,
          274.705,
          115.68,
          57.263,
          13.76,
          7.338,
          0.0,
          11.528,
          18.325,
          49.419,
          138.06,
          164.035,
          207.925,
          429.55,
          394.15,
          214.675,
          89.761,
          30.918,
          40.273,
          8.712,
          2.294,
          23.157,
          0.0,
          7.731,
          3.02,
          0.0,
          12.749,
          5.032,
          10.529,
          7.088,
          0.0,
          1.902,
          3.579,
          12.075,
          4.38,
          6.918,
          58.049,
          67.404,
          79.317,
          88.674,
          50.29,
          19.153,
          6.768,
          0.0,
          19.937,
          0.0,
          13.501,
          19.025,
          0.0,
          11.688,
          1.436,
          0.0,
          15.825,
          1.734,
          12.366,
          1.262,
          8.061,
          38.296,
          79.612,
          138.41,
          133.695,
          56.527,
          35.193,
          63.307,
          85.445,
          83.718,
          81.567,
          35.087,
          23.128,
          2.218,
          9.863,
          11.533,
          41.348,
          45.588,
          68.583,
          41.705,
          8.01,
          4.152,
          7.118,
          4.112,
          1.528,
          9.181,
          0.0,
          8.266,
          0.0,
          3.938,
          0.0,
          23.501,
          12.394,
          4.271,
          37.072,
          40.464,
          74.117,
          38.715,
          30.592,
          26.308,
          10.508,
          1.521,
          17.697,
          11.707,
          17.23,
          1.861,
          9.063,
          18.827,
          46.084,
          26.029,
          46.464,
          113.365,
          168.76,
          175.985,
          145.7,
          127.35,
          42.928,
          21.594,
          30.523,
          35.196,
          36.879,
          27.902,
          99.066,
          57.699,
          121.61,
          199.595,
          261.38,
          315.07,
          550.33,
          547.33,
          576.29,
          367.41,
          220.76,
          85.616,
          50.642,
          46.784,
          18.63,
          30.541,
          27.535,
          43.288,
          36.02,
          39.41,
          31.713,
          29.56,
          12.06,
          7.353,
          5.202,
          26.492,
          23.058,
          6.841,
          23.014,
          21.287,
          24.677,
          20.395,
          55.328,
          25.044,
          32.267,
          23.723,
          12.177,
          7.881,
          5.304,
          1.024,
          11.658,
          6.518,
          1.384,
          11.591,
          14.124,
          11.962,
          0.0,
          8.051,
          0.0,
          12.276,
          0.0,
          5.409,
          0.0,
          7.907,
          29.624,
          21.924,
          1.023,
          11.655,
          15.045,
          27.81,
          29.919,
          18.813,
          46.498,
          49.889,
          53.276,
          66.898,
          31.07,
          43.835,
          31.88,
          29.727,
          34.396,
          63.358,
          8.775,
          10.877,
          1.465,
          5.705,
          0.0,
          27.404,
          12.459,
          1.348,
          6.429,
          4.276,
          0.0,
          14.892,
          5.064,
          0.0,
          7.129,
          4.543,
          9.625,
          27.507,
          14.27,
          16.381,
          5.274,
          9.943,
          7.789,
          16.292,
          0.923,
          2.608,
          19.638,
          22.171,
          20.451,
          22.986,
          17.849,
          3.761,
          17.807,
          19.916,
          6.678,
          8.787,
          0.669,
          6.188,
          8.299,
          3.586,
          8.681,
          12.061,
          9.894,
          4.333,
          17.953,
          21.343,
          19.185,
          16.61,
          2.52,
          12.306,
          2.902,
          5.439,
          0.298,
          5.375,
          0.655,
          2.767,
          0.618,
          2.303,
          4.838,
          0.132,
          0.0,
          7.756,
          0.0,
          1.609,
          0.0,
          2.418,
          0.0
        ]
      ]
    }
  },
  "23290-005": {
    "reaction": {
      "0": {
        "x4_code": "(11-NA-30(0,B-)12-MG-30,,PN/DE,,REL)",
        "0": {
          "code": [
            "11-NA-30",
            [
              "0,B-"
            ],
            "12-MG-30,,PN/DE,,REL"
          ],
          "type": null,
          "target": "11-NA-30",
          "process": "0,B-",
          "sf49": "12-MG-30,,PN/DE,,REL",
          "sf4": "12-MG-30",
          "sf5": null,
          "sf6": "PN/DE",
          "sf7": null,
          "sf8": "REL",
          "sf9": null
        },
        "type": null,
        "free_text": "Relative beta-delayed neutron spectrum, counts/8keV ."
      }
    },
    "extra_information": {
      "decay-data": {
        "0": [
          {
            "x4_code": "(11-NA-30,53.MSEC)",
            "free_txt": []
          }
        ]
      },
      "err-analys": {
        "0": [
          {
            "x4_code": "(E-ERR-DIG)",
            "free_txt": [
              " Digitizing error of scale X ( energy);"
            ]
          },
          {
            "x4_code": "(ERR-DIG)",
            "free_txt": [
              " Digitizing error of scale Y ( data);",
              " reflect deviation of scale from linear low.",
              "   Quantization error (one pixel) :",
              "scale X - 1.411 keV ,",
              "scale Y - 0.890 arb.units ."
            ]
          }
        ]
      },
      "status": {
        "0": [
          {
            "x4_code": "(CURVE)",
            "free_txt": [
              " Fig.7 of R,CERN-81-09,327,1981"
            ]
          }
        ]
      }
    },
    "common": {
      "heads": [
        "E-ERR-DIG",
        "ERR-DIG"
      ],
      "units": [
        "KEV",
        "ARB-UNITS"
      ],
      "data": [
        [
          0.804
        ],
        [
          0.479
        ]
      ]
    },
    "data": {
      "heads": [
        "E-MIN",
        "E-MAX",
        "DATA"
      ],
      "units": [
        "KEV",
        "KEV",
        "ARB-UNITS"
      ],
      "data": [
        [
          2.28,
          11.46,
          17.84,
          28.49,
          37.06,
          47.79,
          55.92,
          64.17,
          73.85,
          81.82,
          91.82,
          99.28,
          109.41,
          116.75,
          126.68,
          136.66,
          144.47,
          154.97,
          162.82,
          171.99,
          181.8,
          190.2,
          198.7,
          206.48,
          217.09,
          226.4,
          234.41,
          243.7,
          261.18,
          271.55,
          279.94,
          289.09,
          296.89,
          307.53,
          316.07,
          323.97,
          334.53,
          343.01,
          351.56,
          360.25,
          370.69,
          379.49,
          387.63,
          397.63,
          405.05,
          415.52,
          423.26,
          433.13,
          442.97,
          450.71,
          462.72,
          486.73,
          495.98,
          505.18,
          513.67,
          523.51,
          532.68,
          541.25,
          549.08,
          558.97,
          568.19,
          577.4,
          587.19,
          595.0,
          604.24,
          612.69,
          621.86,
          631.05,
          639.62,
          649.68,
          657.56,
          666.85,
          676.02,
          684.36,
          694.14,
          701.87,
          711.78,
          720.87,
          728.58,
          737.72,
          745.45,
          754.67,
          763.88,
          773.83,
          781.82,
          792.56,
          800.3,
          809.37,
          817.93,
          826.64,
          837.0,
          845.19,
          854.94,
          863.59,
          872.27,
          882.01,
          888.98,
          899.52,
          907.3,
          916.49,
          925.67,
          934.83,
          941.9,
          950.39,
          961.65,
          968.76,
          978.62,
          986.98,
          997.53,
          1004.6,
          1013.8,
          1023.75,
          1030.75,
          1039.9,
          1049.1,
          1060.4,
          1068.15,
          1077.3,
          1085.7,
          1094.2,
          1112.65,
          1120.4,
          1130.9,
          1139.4,
          1148.6,
          1157.15,
          1166.3,
          1175.5,
          1184.65,
          1194.55,
          1201.65,
          1212.3,
          1219.4,
          1229.3,
          1237.25,
          1247.2,
          1255.7,
          1264.3,
          1274.1,
          1283.95,
          1293.0,
          1300.0,
          1308.45,
          1319.05,
          1326.75,
          1336.65,
          1345.15,
          1354.2,
          1363.4,
          1372.0,
          1380.45,
          1391.75,
          1401.6,
          1408.6,
          1416.3,
          1426.15,
          1433.95,
          1444.6,
          1453.15,
          1462.3,
          1472.2,
          1478.6,
          1488.5,
          1496.95,
          1506.1,
          1515.95,
          1524.35,
          1534.25,
          1542.75,
          1552.0,
          1560.45,
          1569.55,
          1579.55,
          1587.4,
          1597.35,
          1606.4,
          1616.25,
          1624.0,
          1631.7,
          1641.6,
          1650.7,
          1660.55,
          1668.35,
          1679.0,
          1688.1,
          1695.2,
          1706.5,
          1713.55,
          1724.2,
          1732.0,
          1742.6,
          1751.7,
          1760.2,
          1770.2,
          1776.55,
          1787.1,
          1797.0,
          1806.15,
          1814.65,
          1823.2,
          1833.0,
          1841.45,
          1851.3,
          1859.75,
          1868.3,
          1877.5,
          1886.7,
          1894.5,
          1902.95,
          1912.8,
          1919.85,
          1931.2,
          1940.35,
          1950.25,
          1958.8,
          1967.95,
          1975.75,
          1984.9,
          1993.35,
          2001.15,
          2011.7,
          2018.1,
          2028.6,
          2037.15,
          2047.1,
          2055.5,
          2063.4,
          2074.0,
          2090.15,
          2099.95,
          2107.7,
          2116.9,
          2126.8,
          2136.6,
          2145.0,
          2153.5,
          2162.05,
          2171.95,
          2179.6,
          2188.8,
          2198.05,
          2207.2,
          2217.75,
          2224.15,
          2229.85,
          2241.1,
          2250.9,
          2260.8,
          2270.7
        ],
        [
          11.46,
          17.84,
          28.49,
          37.06,
          47.79,
          55.92,
          64.17,
          73.85,
          81.82,
          91.82,
          99.28,
          109.41,
          116.75,
          126.68,
          136.66,
          144.47,
          154.97,
          162.82,
          171.99,
          181.8,
          190.2,
          198.7,
          206.48,
          217.09,
          226.4,
          234.41,
          243.7,
          261.18,
          271.55,
          279.94,
          289.09,
          296.89,
          307.53,
          316.07,
          323.97,
          334.53,
          343.01,
          351.56,
          360.25,
          370.69,
          379.49,
          387.63,
          397.63,
          405.05,
          415.52,
          423.26,
          433.13,
          442.97,
          450.71,
          462.72,
          486.73,
          495.98,
          505.18,
          513.67,
          523.51,
          532.68,
          541.25,
          549.08,
          558.97,
          568.19,
          577.4,
          587.19,
          595.0,
          604.24,
          612.69,
          621.86,
          631.05,
          639.62,
          649.68,
          657.56,
          666.85,
          676.02,
          684.36,
          694.14,
          701.87,
          711.78,
          720.87,
          728.58,
          737.72,
          745.45,
          754.67,
          763.88,
          773.83,
          781.82,
          792.56,
          800.3,
          809.37,
          817.93,
          826.64,
          837.0,
          845.19,
          854.94,
          863.59,
          872.27,
          882.01,
          888.98,
          899.52,
          907.3,
          916.49,
          925.67,
          934.83,
          941.9,
          950.39,
          961.65,
          968.76,
          978.62,
          986.98,
          997.53,
          1004.6,
          1013.8,
          1023.75,
          1030.75,
          1039.9,
          1049.1,
          1060.4,
          1068.15,
          1077.3,
          1085.7,
          1094.2,
          1112.65,
          1120.4,
          1130.9,
          1139.4,
          1148.6,
          1157.15,
          1166.3,
          1175.5,
          1184.65,
          1194.55,
          1201.65,
          1212.3,
          1219.4,
          1229.3,
          1237.25,
          1247.2,
          1255.7,
          1264.3,
          1274.1,
          1283.95,
          1293.0,
          1300.0,
          1308.45,
          1319.05,
          1326.75,
          1336.65,
          1345.15,
          1354.2,
          1363.4,
          1372.0,
          1380.45,
          1391.75,
          1401.6,
          1408.6,
          1416.3,
          1426.15,
          1433.95,
          1444.6,
          1453.15,
          1462.3,
          1472.2,
          1478.6,
          1488.5,
          1496.95,
          1506.1,
          1515.95,
          1524.35,
          1534.25,
          1542.75,
          1552.0,
          1560.45,
          1569.55,
          1579.55,
          1587.4,
          1597.35,
          1606.4,
          1616.25,
          1624.0,
          1631.7,
          1641.6,
          1650.7,
          1660.55,
          1668.35,
          1679.0,
          1688.1,
          1695.2,
          1706.5,
          1713.55,
          1724.2,
          1732.0,
          1742.6,
          1751.7,
          1760.2,
          1770.2,
          1776.55,
          1787.1,
          1797.0,
          1806.15,
          1814.65,
          1823.2,
          1833.0,
          1841.45,
          1851.3,
          1859.75,
          1868.3,
          1877.5,
          1886.7,
          1894.5,
          1902.95,
          1912.8,
          1919.85,
          1931.2,
          1940.35,
          1950.25,
          1958.8,
          1967.95,
          1975.75,
          1984.9,
          1993.35,
          2001.15,
          2011.7,
          2018.1,
          2028.6,
          2037.15,
          2047.1,
          2055.5,
          2063.4,
          2074.0,
          2090.15,
          2099.95,
          2107.7,
          2116.9,
          2126.8,
          2136.6,
          2145.0,
          2153.5,
          2162.05,
          2171.95,
          2179.6,
          2188.8,
          2198.05,
          2207.2,
          2217.75,
          2224.15,
          2229.85,
          2241.1,
          2250.9,
          2260.8,
          2270.7,
          2279.1
        ],
        [
          2.049,
          3.812,
          13.145,
          24.702,
          49.171,
          78.981,
          190.275,
          534.42,
          658.62,
          340.705,
          153.245,
          220.9,
          523.2,
          599.315,
          268.485,
          86.368,
          14.666,
          48.932,
          44.906,
          43.106,
          15.928,
          12.794,
          28.36,
          17.21,
          34.557,
          68.819,
          124.455,
          111.96,
          58.505,
          26.429,
          25.076,
          12.147,
          38.396,
          31.253,
          62.847,
          83.755,
          47.671,
          85.944,
          78.358,
          169.61,
          291.585,
          296.02,
          163.32,
          68.023,
          25.707,
          19.902,
          15.431,
          11.404,
          0.0,
          2.46,
          0.0,
          2.835,
          23.741,
          11.702,
          27.712,
          0.0,
          23.222,
          33.001,
          45.003,
          34.299,
          60.547,
          45.39,
          25.781,
          59.603,
          48.008,
          49.772,
          45.299,
          54.186,
          80.436,
          120.935,
          124.925,
          164.53,
          119.1,
          112.845,
          75.874,
          99.902,
          85.185,
          64.688,
          62.446,
          47.289,
          49.497,
          61.056,
          60.145,
          86.84,
          145.59,
          143.795,
          135.76,
          98.789,
          166.89,
          192.255,
          350.29,
          356.055,
          298.6,
          151.215,
          102.665,
          95.969,
          65.23,
          74.117,
          72.318,
          74.081,
          74.951,
          66.921,
          77.145,
          70.892,
          65.085,
          86.884,
          53.918,
          44.993,
          39.634,
          36.499,
          73.434,
          52.491,
          46.242,
          39.989,
          43.53,
          37.277,
          49.728,
          16.314,
          26.984,
          23.393,
          53.645,
          21.122,
          30.008,
          20.639,
          30.419,
          46.872,
          31.716,
          54.403,
          20.546,
          45.462,
          61.027,
          57.447,
          53.868,
          80.562,
          124.625,
          101.9,
          141.95,
          135.255,
          122.32,
          112.51,
          75.536,
          74.184,
          91.973,
          72.811,
          60.769,
          73.665,
          71.864,
          35.781,
          73.609,
          68.694,
          72.682,
          67.761,
          64.627,
          38.788,
          41.442,
          24.059,
          44.077,
          52.516,
          64.965,
          54.704,
          61.811,
          63.576,
          69.345,
          63.985,
          58.622,
          47.916,
          34.542,
          60.793,
          33.168,
          70.105,
          46.491,
          37.566,
          83.85,
          85.169,
          91.828,
          45.95,
          65.076,
          37.902,
          43.226,
          32.52,
          19.59,
          21.797,
          33.801,
          28.438,
          23.523,
          32.408,
          19.476,
          39.943,
          38.14,
          42.573,
          35.431,
          21.163,
          48.306,
          59.863,
          41.147,
          49.142,
          43.777,
          41.534,
          66.004,
          52.183,
          45.042,
          33.889,
          27.639,
          40.088,
          48.085,
          38.269,
          64.967,
          56.49,
          38.661,
          40.427,
          41.742,
          62.647,
          41.702,
          55.484,
          71.943,
          50.551,
          63.892,
          61.202,
          49.609,
          61.167,
          50.463,
          52.228,
          36.178,
          70.444,
          61.965,
          57.05,
          101.555,
          61.011,
          64.101,
          38.706,
          44.03,
          49.8,
          42.208,
          20.82,
          24.366,
          23.455,
          39.911,
          20.749,
          7.818,
          41.193,
          28.706,
          31.359,
          16.201,
          36.673,
          38.436,
          22.385,
          14.794,
          19.228,
          11.194
        ]
      ]
    }
  },
  "23290-006": {
    "reaction": {
      "0": {
        "x4_code": "(11-NA-31(0,B-)12-MG-31,,PN/DE,,REL)",
        "0": {
          "code": [
            "11-NA-31",
            [
              "0,B-"
            ],
            "12-MG-31,,PN/DE,,REL"
          ],
          "type": null,
          "target": "11-NA-31",
          "process": "0,B-",
          "sf49": "12-MG-31,,PN/DE,,REL",
          "sf4": "12-MG-31",
          "sf5": null,
          "sf6": "PN/DE",
          "sf7": null,
          "sf8": "REL",
          "sf9": null
        },
        "type": null,
        "free_text": "Relative beta-delayed neutron spectrum, counts/8keV ."
      }
    },
    "extra_information": {
      "decay-data": {
        "0": [
          {
            "x4_code": "(11-NA-31,17.MSEC)",
            "free_txt": []
          }
        ]
      },
      "err-analys": {
        "0": [
          {
            "x4_code": "(E-ERR-DIG)",
            "free_txt": [
              " Digitizing error of scale X ( energy);"
            ]
          },
          {
            "x4_code": "(ERR-DIG)",
            "free_txt": [
              " Digitizing error of scale Y ( data);",
              " reflect deviation of scale from linear low.",
              "   Quantization error (one pixel) :",
              "scale X - 1.61  keV ,",
              "scale Y - 0.141 arb.units ."
            ]
          }
        ]
      },
      "status": {
        "0": [
          {
            "x4_code": "(CURVE)",
            "free_txt": [
              " Fig.8 of R,CERN-81-09,327,1981",
              " Fig.11c, P,MAINZ-78,20,1978 - previous publication."
            ]
          }
        ]
      }
    },
    "common": {
      "heads": [
        "E-ERR-DIG",
        "ERR-DIG"
      ],
      "units": [
        "KEV",
        "ARB-UNITS"
      ],
      "data": [
        [
          0.86
        ],
        [
          0.086
        ]
      ]
    },
    "data": {
      "heads": [
        "E-MIN",
        "E-MAX",
        "DATA"
      ],
      "units": [
        "KEV",
        "KEV",
        "ARB-UNITS"
      ],
      "data": [
        [
          0.0,
          4.99,
          13.18,
          22.12,
          30.95,
          37.38,
          44.67,
          53.67,
          62.19,
          70.1,
          79.21,
          86.24,
          94.35,
          100.01,
          108.07,
          117.72,
          126.36,
          133.74,
          141.03,
          149.96,
          158.15,
          166.11,
          174.22,
          181.31,
          197.17,
          203.69,
          214.1,
          222.06,
          229.38,
          239.21,
          245.53,
          270.5,
          277.22,
          286.38,
          294.14,
          302.62,
          309.27,
          319.1,
          326.22,
          334.22,
          341.41,
          350.01,
          358.28,
          365.63,
          375.24,
          382.6,
          389.65,
          397.74,
          407.56,
          414.58,
          420.04,
          431.43,
          439.55,
          446.66,
          454.15,
          463.88,
          470.33,
          477.79,
          486.08,
          494.03,
          501.14,
          509.76,
          519.25,
          526.2,
          533.3,
          541.57,
          573.65,
          581.72,
          590.52,
          635.69,
          645.38,
          652.49,
          659.81,
          671.05,
          692.89,
          700.2,
          716.35,
          724.46,
          732.36,
          740.35,
          748.28,
          755.74,
          763.8,
          771.79,
          779.21,
          788.63,
          796.51,
          803.87,
          811.84,
          827.07,
          834.5,
          842.67,
          851.54,
          858.61,
          867.36,
          875.42,
          882.56,
          905.99,
          913.5,
          923.17,
          930.15,
          937.48,
          946.39,
          953.38,
          962.49,
          969.82,
          978.77,
          986.35,
          992.89,
          1001.35,
          1009.15,
          1017.5,
          1026.4,
          1032.95,
          1040.05,
          1048.45,
          1054.75,
          1063.1,
          1071.95,
          1087.05,
          1096.8,
          1103.35,
          1113.05,
          1119.35,
          1126.65,
          1136.35,
          1143.7,
          1151.55,
          1159.75,
          1167.65,
          1176.25,
          1183.8,
          1192.05,
          1206.15,
          1215.65,
          1222.35,
          1228.9,
          1240.0,
          1247.25,
          1256.15,
          1264.1,
          1272.2,
          1279.45,
          1288.55,
          1294.95,
          1302.95,
          1311.5,
          1318.9,
          1326.15,
          1334.0,
          1342.1,
          1350.0,
          1355.75,
          1365.65,
          1373.65,
          1383.5,
          1391.8,
          1398.25,
          1405.6,
          1414.3,
          1423.25,
          1430.1,
          1444.2,
          1454.05,
          1461.15,
          1468.3,
          1478.0,
          1485.95,
          1493.4,
          1502.35,
          1510.45,
          1518.55,
          1526.3,
          1533.0,
          1543.05,
          1549.3,
          1557.1,
          1566.6,
          1573.25,
          1581.65,
          1597.75,
          1603.6,
          1615.6,
          1621.75,
          1628.25,
          1637.75,
          1654.55,
          1661.85,
          1670.05,
          1678.2,
          1685.85,
          1693.25,
          1702.1,
          1709.6,
          1716.25,
          1726.4,
          1732.95,
          1741.95,
          1749.7,
          1779.05,
          1789.25,
          1796.55,
          1804.7,
          1814.5,
          1825.8,
          1838.5,
          1845.7,
          1852.95,
          1862.5,
          1877.15,
          1887.15,
          1895.0,
          1902.1,
          1910.2,
          1918.2,
          1927.4,
          1936.15,
          1957.8,
          1966.5,
          1975.5,
          1984.65,
          1989.85,
          1999.4,
          2008.45,
          2014.75,
          2022.9,
          2031.3,
          2039.1,
          2046.0,
          2055.6,
          2062.9,
          2072.65,
          2080.95,
          2087.25,
          2095.25,
          2102.65,
          2112.05,
          2127.35,
          2134.65,
          2143.55,
          2151.85,
          2158.75,
          2167.45,
          2174.85,
          2184.5,
          2198.75,
          2207.6,
          2221.6,
          2230.3,
          2238.45,
          2246.65,
          2255.25,
          2269.9,
          2278.7,
          2286.75,
          2293.2,
          2302.75,
          2309.45,
          2317.4,
          2325.3,
          2333.5,
          2341.55,
          2350.45,
          2357.5,
          2365.45,
          2374.35,
          2380.75,
          2389.65,
          2396.15,
          2404.9,
          2412.05,
          2420.25,
          2428.55,
          2437.45,
          2445.25,
          2452.35,
          2467.85,
          2476.7,
          2484.45,
          2493.2,
          2499.7,
          2523.4,
          2532.25,
          2540.1,
          2548.15,
          2556.05,
          2564.95,
          2579.55,
          2587.4,
          2597.05,
          2611.5,
          2622.0,
          2629.25
        ],
        [
          4.99,
          13.18,
          22.12,
          30.95,
          37.38,
          44.67,
          53.67,
          62.19,
          70.1,
          79.21,
          86.24,
          94.35,
          100.01,
          108.07,
          117.72,
          126.36,
          133.74,
          141.03,
          149.96,
          158.15,
          166.11,
          174.22,
          181.31,
          197.17,
          203.69,
          214.1,
          222.06,
          229.38,
          239.21,
          245.53,
          270.5,
          277.22,
          286.38,
          294.14,
          302.62,
          309.27,
          319.1,
          326.22,
          334.22,
          341.41,
          350.01,
          358.28,
          365.63,
          375.24,
          382.6,
          389.65,
          397.74,
          407.56,
          414.58,
          420.04,
          431.43,
          439.55,
          446.66,
          454.15,
          463.88,
          470.33,
          477.79,
          486.08,
          494.03,
          501.14,
          509.76,
          519.25,
          526.2,
          533.3,
          541.57,
          573.65,
          581.72,
          590.52,
          635.69,
          645.38,
          652.49,
          659.81,
          671.05,
          692.89,
          700.2,
          716.35,
          724.46,
          732.36,
          740.35,
          748.28,
          755.74,
          763.8,
          771.79,
          779.21,
          788.63,
          796.51,
          803.87,
          811.84,
          827.07,
          834.5,
          842.67,
          851.54,
          858.61,
          867.36,
          875.42,
          882.56,
          905.99,
          913.5,
          923.17,
          930.15,
          937.48,
          946.39,
          953.38,
          962.49,
          969.82,
          978.77,
          986.35,
          992.89,
          1001.35,
          1009.15,
          1017.5,
          1026.4,
          1032.95,
          1040.05,
          1048.45,
          1054.75,
          1063.1,
          1071.95,
          1087.05,
          1096.8,
          1103.35,
          1113.05,
          1119.35,
          1126.65,
          1136.35,
          1143.7,
          1151.55,
          1159.75,
          1167.65,
          1176.25,
          1183.8,
          1192.05,
          1206.15,
          1215.65,
          1222.35,
          1228.9,
          1240.0,
          1247.25,
          1256.15,
          1264.1,
          1272.2,
          1279.45,
          1288.55,
          1294.95,
          1302.95,
          1311.5,
          1318.9,
          1326.15,
          1334.0,
          1342.1,
          1350.0,
          1355.75,
          1365.65,
          1373.65,
          1383.5,
          1391.8,
          1398.25,
          1405.6,
          1414.3,
          1423.25,
          1430.1,
          1444.2,
          1454.05,
          1461.15,
          1468.3,
          1478.0,
          1485.95,
          1493.4,
          1502.35,
          1510.45,
          1518.55,
          1526.3,
          1533.0,
          1543.05,
          1549.3,
          1557.1,
          1566.6,
          1573.25,
          1581.65,
          1597.75,
          1603.6,
          1615.6,
          1621.75,
          1628.25,
          1637.75,
          1654.55,
          1661.85,
          1670.05,
          1678.2,
          1685.85,
          1693.25,
          1702.1,
          1709.6,
          1716.25,
          1726.4,
          1732.95,
          1741.95,
          1749.7,
          1779.05,
          1789.25,
          1796.55,
          1804.7,
          1814.5,
          1825.8,
          1838.5,
          1845.7,
          1852.95,
          1862.5,
          1877.15,
          1887.15,
          1895.0,
          1902.1,
          1910.2,
          1918.2,
          1927.4,
          1936.15,
          1957.8,
          1966.5,
          1975.5,
          1984.65,
          1989.85,
          1999.4,
          2008.45,
          2014.75,
          2022.9,
          2031.3,
          2039.1,
          2046.0,
          2055.6,
          2062.9,
          2072.65,
          2080.95,
          2087.25,
          2095.25,
          2102.65,
          2112.05,
          2127.35,
          2134.65,
          2143.55,
          2151.85,
          2158.75,
          2167.45,
          2174.85,
          2184.5,
          2198.75,
          2207.6,
          2221.6,
          2230.3,
          2238.45,
          2246.65,
          2255.25,
          2269.9,
          2278.7,
          2286.75,
          2293.2,
          2302.75,
          2309.45,
          2317.4,
          2325.3,
          2333.5,
          2341.55,
          2350.45,
          2357.5,
          2365.45,
          2374.35,
          2380.75,
          2389.65,
          2396.15,
          2404.9,
          2412.05,
          2420.25,
          2428.55,
          2437.45,
          2445.25,
          2452.35,
          2467.85,
          2476.7,
          2484.45,
          2493.2,
          2499.7,
          2523.4,
          2532.25,
          2540.1,
          2548.15,
          2556.05,
          2564.95,
          2579.55,
          2587.4,
          2597.05,
          2611.5,
          2622.0,
          2629.25,
          2638.1
        ],
        [
          2.101,
          4.426,
          7.736,
          8.085,
          6.673,
          7.868,
          8.852,
          13.786,
          27.605,
          72.736,
          101.86,
          64.407,
          8.622,
          1.357,
          8.899,
          1.208,
          0.641,
          6.633,
          2.962,
          9.588,
          9.091,
          5.773,
          12.048,
          0.0,
          2.659,
          2.938,
          1.1,
          0.0,
          4.056,
          6.662,
          0.0,
          7.708,
          10.949,
          19.691,
          0.0,
          5.298,
          8.257,
          12.203,
          3.314,
          10.505,
          1.192,
          0.555,
          10.213,
          4.921,
          8.373,
          9.921,
          0.61,
          11.608,
          7.373,
          2.716,
          0.527,
          7.927,
          3.694,
          2.562,
          13.561,
          5.659,
          14.19,
          14.539,
          23.704,
          43.094,
          50.214,
          65.866,
          43.649,
          22.489,
          5.985,
          0.0,
          1.738,
          0.818,
          0.0,
          5.663,
          1.005,
          0.438,
          3.96,
          0.0,
          8.603,
          2.533,
          10.992,
          4.712,
          5.696,
          2.378,
          1.177,
          10.976,
          1.735,
          8.714,
          9.063,
          0.0,
          2.498,
          4.188,
          0.0,
          2.134,
          6.785,
          7.205,
          7.484,
          0.429,
          3.528,
          1.128,
          0.0,
          5.065,
          9.998,
          5.905,
          0.0,
          9.425,
          2.158,
          0.0,
          12.166,
          3.136,
          16.25,
          16.741,
          20.405,
          33.942,
          10.103,
          14.895,
          10.661,
          20.39,
          6.071,
          1.202,
          0.776,
          13.185,
          0.0,
          6.97,
          2.453,
          12.605,
          2.729,
          9.496,
          3.146,
          13.439,
          5.114,
          6.663,
          12.231,
          2.002,
          0.0,
          14.69,
          7.915,
          0.436,
          2.548,
          8.187,
          8.395,
          0.494,
          10.504,
          0.487,
          8.876,
          0.551,
          11.127,
          9.713,
          11.403,
          6.181,
          0.677,
          11.958,
          0.883,
          4.477,
          2.922,
          0.0,
          6.866,
          8.696,
          5.307,
          17.011,
          15.879,
          17.498,
          17.848,
          14.389,
          20.099,
          0.0,
          4.363,
          6.335,
          0.549,
          4.495,
          0.0,
          2.585,
          6.813,
          5.329,
          11.038,
          5.322,
          1.3,
          15.754,
          17.937,
          5.804,
          9.891,
          0.0,
          18.63,
          12.701,
          19.255,
          21.58,
          17.697,
          9.162,
          19.878,
          2.807,
          15.778,
          5.408,
          22.894,
          9.986,
          8.079,
          14.493,
          8.143,
          23.796,
          17.587,
          13.212,
          19.838,
          20.046,
          8.967,
          2.33,
          0.493,
          2.183,
          6.834,
          7.112,
          7.248,
          0.474,
          4.844,
          2.936,
          0.534,
          9.838,
          12.232,
          3.273,
          7.784,
          3.478,
          8.13,
          15.39,
          6.146,
          10.936,
          0.706,
          15.935,
          14.029,
          0.0,
          8.804,
          6.685,
          4.496,
          11.756,
          16.761,
          4.628,
          0.394,
          4.48,
          0.528,
          9.48,
          11.947,
          2.493,
          9.472,
          9.751,
          0.0,
          9.742,
          2.475,
          12.416,
          10.368,
          0.421,
          2.463,
          7.608,
          2.667,
          0.0,
          2.658,
          10.552,
          0.0,
          13.155,
          5.676,
          3.133,
          10.886,
          3.266,
          10.81,
          3.33,
          5.725,
          16.371,
          0.713,
          11.217,
          6.277,
          11.281,
          9.092,
          3.729,
          5.912,
          3.512,
          6.118,
          3.576,
          9.003,
          1.031,
          3.567,
          8.924,
          14.633,
          9.552,
          3.907,
          6.442,
          12.361,
          4.177,
          1.353,
          0.433,
          4.095,
          15.301,
          4.579,
          7.044,
          4.573,
          1.819,
          7.174,
          4.56,
          0.0,
          4.411,
          0.0,
          4.332,
          1.791
        ]
      ]
    }
  }
}