{
  "bib": {
    "title": " Measurement Of The Cm-245(N,F) Cross Section In The Resolved Resonance Region.",
    "authors": [
      {
        "name": "O.Serot"
      },
      {
        "name": " C.Wagemans"
      },
      {
        "name": " S.Vermote"
      },
      {
        "name": " J.Van Gils"
      },
      {
        "name": " B.Habert"
      }
    ],
    "institutes": [
      {
        "x4_code": "(2ZZZGEL)",
        "free_txt": [
          " J.Van Gils"
        ]
      },
      {
        "x4_code": "(2FR CAD)",
        "free_txt": [
          " O.Serot, B.Habert"
        ]
      },
      {
        "x4_code": "(2BLGGHT)",
        "free_txt": [
          " C.Wagemans, S.Vermote"
        ]
      }
    ],
    "references": {
      "0": [
        {
          "x4_code": "(S,AIP-1175,207,2009)",
          "free_txt": [
            " Proc.of Int.Workshop on Nuclear Fission and",
            " Fission-product Spectroscopy."
          ],
          "publication_year": "2009"
        },
        {
          "x4_code": "(J,KPS,59,1896,2011)",
          "free_txt": [
            " ND2010 Conf.Proc. paper #1506;",
            "in ND2010 Abstract book, page 65."
          ],
          "publication_year": "2011"
        }
      ]
    },
    "facility": {
      "0": [
        {
          "x4_code": "(ACCEL,2ZZZGEL)",
          "free_txt": [
            " GELINA neutron facility of IRMM, Geel.",
            "Repetition frequency of the accelerator 800 Hz."
          ],
          "facility_type": "(ACCEL)",
          "insitute": "(2ZZZGEL)"
        }
      ]
    },
    "history": [
      {
        "x4_code": "(20101106C)",
        "free_txt": [
          "       M.M.",
          "Request for the data was sent 10.11.2010 to O.Serot."
        ]
      },
      {
        "x4_code": "(20110726A)",
        "free_txt": [
          " M.M. Ref. J,KPS,59,1896,2011 was added.",
          "Authors' data were added in Subent 002.",
          "Subent 004 was added.",
          " BIB information was added."
        ]
      },
      {
        "x4_code": "(20160724U)",
        "free_txt": [
          " SD: AIP-1175,207,2011 -> AIP-1175,207,2009."
        ]
      },
      {
        "x4_code": "(20220128A)",
        "free_txt": [
          " SD: Subent 003 deleted (data given just to",
          "demonstrate the correctness of energy calibration by",
          "using the well known cross section)"
        ]
      }
    ]
  },
  "23120-001": {
    "extra_information": {
      "detector": {
        "0": [
          {
            "x4_code": "(SIBAR)",
            "free_txt": [
              " Two Si-Au surface barrier detectors to detect",
              "fission fragments from Cm and alphas from monitor."
            ]
          }
        ]
      },
      "facility": {
        "0": [
          {
            "x4_code": "(ACCEL,2ZZZGEL)",
            "free_txt": [
              " GELINA neutron facility of IRMM, Geel.",
              "Repetition frequency of the accelerator 800 Hz."
            ]
          }
        ]
      },
      "inc-source": {
        "0": [
          {
            "x4_code": "(BRST,PHOTO)",
            "free_txt": [
              " Pulsed, compressed electron beam hits",
              "rotating U target, producing bremsstrahlung gamma rays,",
              "created neutrons via (gamma,n) and (gamma,f) reactions.",
              "Neutrons are then moderated in 4 cm thick water-filled",
              "beryllium containers.",
              "Cadmium filter is placed in front of the chamber to",
              "remove overlapping neutrons from previous bursts."
            ]
          }
        ]
      },
      "method": {
        "0": [
          {
            "x4_code": "(TOF)",
            "free_txt": [
              " Length of the flight path is 9.3 m.",
              "Incident neutron energy was determined by TOF.",
              " Two runs:",
              "-With highly enriched U-235 sample - to determine the",
              "detection geometry factors on both sides and to check",
              "if the U-235(n,f) cross section can be reproduced.",
              "Gave confidence in the good functioning of exp. setup.",
              "-With Cm sample at the same detection geometry.",
              "*To remove spontaneous fission contributions,",
              "additional run with the beam closed was performed using",
              "a pulse generator. Background measurement on the boron",
              "side was done with the black resonances filters of Rh,",
              "Au, Mn, W, Co."
            ]
          }
        ]
      },
      "monitor": {
        "0": [
          {
            "x4_code": "(5-B-10(N,A)3-LI-7,,SIG)",
            "free_txt": [
              " For neutron flux determination"
            ]
          },
          {
            "x4_code": "(92-U-235(N,F),,SIG)",
            "free_txt": [
              "To detection geometry factors."
            ]
          }
        ]
      }
    }
  },
  "23120-002": {
    "reaction": {
      "0": {
        "x4_code": "(96-CM-245(N,F),,SIG)",
        "0": {
          "code": [
            "96-CM-245",
            [
              "N,F"
            ],
            ",,SIG"
          ],
          "type": null,
          "target": "96-CM-245",
          "process": "N,F",
          "sf49": ",,SIG",
          "sf4": null,
          "sf5": null,
          "sf6": "SIG",
          "sf7": null,
          "sf8": null,
          "sf9": null
        },
        "type": null,
        "free_text": ""
      }
    },
    "extra_information": {
      "err-analys": {
        "0": [
          {
            "x4_code": "(DATA-ERR)",
            "free_txt": [
              " Not specified, probably total."
            ]
          }
        ]
      },
      "rel-ref": {
        "0": [
          {
            "x4_code": "(A,10730001,J.C.Brown+,J,NSE,65,166,1978)",
            "free_txt": [
              " The energy resolution was improve between 10 and 20 eV",
              " compared to Browne+ measurement."
            ]
          },
          {
            "x4_code": "(A,10121001,M.S.Moore+,J,PR/C,3,1656,1971)",
            "free_txt": [
              " Nice agreement with Moore+ measurement."
            ]
          },
          {
            "x4_code": "(D,13993003,R M.White+,C,79KNOX,,496,1979)",
            "free_txt": [
              " White+ measurement shows a shift in energy due to",
              " a problem of energy calibration."
            ]
          },
          {
            "x4_code": "(N,,C.De Saint Jean+,C,2007NICE,1,251,2007)",
            "free_txt": [
              " CONRAD code"
            ]
          }
        ]
      },
      "sample": {
        "0": [
          {
            "x4_code": null,
            "free_txt": [
              "Curium oxide sample of 50 microg/cm**2 thickness,active",
              "diameter 15 mm was mounted in the centre of a vacuum",
              "chamber, back-to-back with B-10 layer.",
              "Isotopic composition in March 2003 : Cm-245 - 98.48%,",
              "Cm-244 - 1.11%, Cm-246 - 0.405%, Cm-247 - 0.008%,",
              "Cm-248 - 0.002%."
            ]
          }
        ]
      },
      "status": {
        "0": [
          {
            "x4_code": "(TABLE)",
            "free_txt": [
              " Data from O.Serot."
            ]
          },
          {
            "x4_code": "(PRELM)",
            "free_txt": [
              " Preliminary results.",
              " Figs.4,5,6 of J,KPS,58,(1506),2011.",
              " Fig.4 of S,AIP-1175,207,2010."
            ]
          }
        ]
      }
    },
    "common": null,
    "data": {
      "heads": [
        "EN",
        "DATA",
        "DATA-ERR"
      ],
      "units": [
        "EV",
        "B",
        "B"
      ],
      "data": [
        [
          0.3947,
          0.4048,
          0.415,
          0.4254,
          0.4359,
          0.4465,
          0.4573,
          0.4682,
          0.4792,
          0.4903,
          0.5016,
          0.513,
          0.5245,
          0.5362,
          0.5479,
          0.5598,
          0.5719,
          0.584,
          0.5963,
          0.6088,
          0.6213,
          0.634,
          0.6468,
          0.6597,
          0.6728,
          0.686,
          0.6993,
          0.7127,
          0.7263,
          0.74,
          0.7538,
          0.7678,
          0.7819,
          0.7961,
          0.8104,
          0.8249,
          0.8395,
          0.8542,
          0.869,
          0.884,
          0.8991,
          0.9144,
          0.9297,
          0.9452,
          0.9608,
          0.9766,
          0.9925,
          1.0085,
          1.0246,
          1.0409,
          1.0573,
          1.0738,
          1.0904,
          1.1072,
          1.1241,
          1.1411,
          1.1583,
          1.1756,
          1.193,
          1.2105,
          1.2282,
          1.246,
          1.2639,
          1.2819,
          1.3001,
          1.3184,
          1.3369,
          1.3554,
          1.3741,
          1.3929,
          1.4119,
          1.431,
          1.4502,
          1.4695,
          1.489,
          1.5085,
          1.5283,
          1.5481,
          1.5681,
          1.5882,
          1.6084,
          1.6288,
          1.6492,
          1.6699,
          1.6906,
          1.7115,
          1.7325,
          1.7536,
          1.7748,
          1.7962,
          1.8177,
          1.8394,
          1.8611,
          1.883,
          1.905,
          1.9272,
          1.9495,
          1.9719,
          1.9944,
          2.017,
          2.0398,
          2.0627,
          2.0858,
          2.109,
          2.1323,
          2.1557,
          2.1792,
          2.2029,
          2.2267,
          2.2507,
          2.2748,
          2.2989,
          2.3233,
          2.3477,
          2.3723,
          2.397,
          2.4218,
          2.4468,
          2.4719,
          2.4971,
          2.5225,
          2.5479,
          2.5735,
          2.5993,
          2.6251,
          2.6511,
          2.6772,
          2.7035,
          2.7299,
          2.7564,
          2.783,
          2.8097,
          2.8366,
          2.8636,
          2.973,
          3.0006,
          3.0284,
          3.0563,
          3.0843,
          3.1408,
          3.1692,
          3.1978,
          3.2264,
          3.2552,
          3.2842,
          3.3132,
          3.3424,
          3.3717,
          3.4012,
          3.4307,
          3.4604,
          3.4903,
          3.5202,
          3.5503,
          3.5805,
          3.6109,
          3.6413,
          3.6719,
          3.7027,
          3.7335,
          3.7645,
          3.7956,
          3.8268,
          3.8582,
          3.8897,
          3.9213,
          3.9531,
          3.9849,
          4.0169,
          4.0491,
          4.0813,
          4.1137,
          4.1462,
          4.1789,
          4.2116,
          4.2445,
          4.2776,
          4.3107,
          4.344,
          4.3774,
          4.411,
          4.4446,
          4.4784,
          4.5123,
          4.5464,
          4.5806,
          4.6149,
          4.6493,
          4.6839,
          4.7186,
          4.7534,
          4.7883,
          4.8234,
          4.8586,
          4.894,
          4.9294,
          4.965,
          5.0007,
          5.0366,
          5.0725,
          5.1086,
          5.1449,
          5.1812,
          5.2177,
          5.2543,
          5.291,
          5.3279,
          5.3649,
          5.402,
          5.4393,
          5.4767,
          5.5142,
          5.5518,
          5.5896,
          5.6275,
          5.6655,
          5.7036,
          5.7419,
          5.7803,
          5.8188,
          5.8575,
          5.8963,
          5.9352,
          5.9742,
          6.0134,
          6.0527,
          6.0921,
          6.1317,
          6.1714,
          6.2112,
          6.2511,
          6.2912,
          6.3314,
          6.3717,
          6.4122,
          6.4528,
          6.4935,
          6.5343,
          6.5753,
          6.6164,
          6.6576,
          6.6989,
          6.7404,
          6.782,
          6.8237,
          6.8656,
          6.9076,
          6.9497,
          6.9919,
          7.0343,
          7.0768,
          7.1194,
          7.1622,
          7.2051,
          7.2481,
          7.2912,
          7.3345,
          7.3779,
          7.4214,
          7.4651,
          7.5088,
          7.5528,
          7.5968,
          7.641,
          7.6852,
          7.7297,
          7.7742,
          7.8189,
          7.8637,
          7.9086,
          7.9537,
          7.9989,
          8.0442,
          8.0896,
          8.1352,
          8.1809,
          8.2267,
          8.2727,
          8.3188,
          8.365,
          8.4113,
          8.4578,
          8.5044,
          8.5511,
          8.598,
          8.6449,
          8.692,
          8.7393,
          8.7866,
          8.8341,
          8.8818,
          8.9295,
          8.9774,
          9.0254,
          9.0735,
          9.1218,
          9.1702,
          9.2187,
          9.2673,
          9.3161,
          9.365,
          9.414,
          9.4632,
          9.5125,
          9.5619,
          9.6114,
          9.6611,
          9.7109,
          9.7608,
          9.8109,
          9.861,
          9.9113,
          9.9618,
          10.012,
          10.063,
          10.114,
          10.165,
          10.216,
          10.267,
          10.318,
          10.37,
          10.422,
          10.473,
          10.525,
          10.577,
          10.629,
          10.681,
          10.734,
          10.786,
          10.839,
          10.892,
          10.944,
          10.997,
          11.051,
          11.104,
          11.157,
          11.211,
          11.264,
          11.318,
          11.372,
          11.426,
          11.48,
          11.534,
          11.589,
          11.643,
          11.698,
          11.753,
          11.808,
          11.863,
          11.918,
          11.973,
          12.029,
          12.084,
          12.14,
          12.196,
          12.252,
          12.308,
          12.364,
          12.42,
          12.533,
          12.59,
          12.647,
          12.704,
          12.761,
          12.818,
          12.875,
          12.933,
          12.991,
          13.048,
          13.106,
          13.164,
          13.222,
          13.28,
          13.339,
          13.397,
          13.456,
          13.515,
          13.573,
          13.633,
          13.692,
          13.751,
          13.81,
          13.87,
          13.93,
          13.989,
          14.049,
          14.109,
          14.23,
          14.29,
          14.351,
          14.411,
          14.472,
          14.655,
          14.717,
          14.778,
          14.84,
          14.901,
          14.963,
          15.025,
          15.087,
          15.149,
          15.212,
          15.274,
          15.337,
          15.4,
          15.462,
          15.525,
          15.589,
          15.652,
          15.715,
          15.779,
          15.842,
          15.906,
          16.034,
          16.098,
          16.162,
          16.227,
          16.551,
          16.616,
          16.746,
          16.812,
          16.878,
          17.075,
          17.274,
          17.541,
          17.608,
          17.743,
          17.946,
          18.014,
          18.081,
          18.15,
          18.286,
          18.423,
          18.492,
          18.561,
          18.699,
          18.768,
          18.838,
          18.977,
          19.116,
          19.186,
          19.256,
          19.397,
          19.468,
          19.538,
          19.609,
          19.68,
          19.751,
          19.822,
          19.894,
          19.965,
          20.037,
          20.108,
          20.18,
          20.252,
          20.324,
          20.396,
          20.469,
          20.541,
          20.614,
          20.686,
          20.759,
          20.832,
          20.905,
          20.979,
          21.052,
          21.125,
          21.199,
          21.273,
          21.346,
          21.421,
          21.495,
          21.569,
          21.643,
          21.718,
          21.792,
          21.867,
          21.942,
          22.017,
          22.092,
          22.167,
          22.243,
          22.318,
          22.394,
          22.47,
          22.546,
          22.622,
          22.698,
          22.774,
          22.851,
          22.927,
          23.004,
          23.081,
          23.157,
          23.235,
          23.312,
          23.389,
          23.467,
          23.544,
          23.622,
          23.7,
          23.778,
          23.856,
          23.934,
          24.012,
          24.091,
          24.169,
          24.248,
          24.327,
          24.406,
          24.485,
          24.564,
          24.644,
          24.723,
          24.803,
          24.882,
          24.962,
          25.042,
          25.122,
          25.203,
          25.364,
          25.444,
          25.525,
          25.606,
          25.687,
          25.768,
          25.849,
          25.931,
          26.012,
          26.094,
          26.176,
          26.258,
          26.34,
          26.422,
          26.504,
          26.587,
          26.669,
          26.752,
          26.835,
          26.918,
          27.001,
          27.084,
          27.167,
          27.251,
          27.334,
          27.418,
          27.502,
          27.586,
          27.67,
          27.754,
          27.839,
          27.923,
          28.008,
          28.092,
          28.262,
          28.433,
          28.518,
          28.689,
          28.775,
          28.861,
          28.947,
          29.033,
          29.119,
          29.206,
          29.292,
          29.379,
          29.466,
          29.553,
          29.64,
          29.727,
          29.814,
          29.901,
          29.989,
          30.077,
          30.165,
          30.253,
          30.341,
          30.429,
          30.517,
          30.605,
          30.694,
          30.783,
          30.872,
          30.961,
          31.05,
          31.139,
          31.228,
          31.318,
          31.407,
          31.497,
          31.587,
          31.677,
          31.767,
          31.857,
          31.948,
          32.038,
          32.129,
          32.22,
          32.31,
          32.401,
          32.493,
          32.584,
          32.675,
          32.767,
          32.858,
          32.95,
          33.042,
          33.134,
          33.226,
          33.319,
          33.411,
          33.504,
          33.596,
          33.689,
          33.782,
          33.875,
          33.968,
          34.062,
          34.155,
          34.249,
          34.342,
          34.436,
          34.53,
          34.624,
          34.718,
          34.813,
          34.907,
          35.002,
          35.096,
          35.191,
          35.286,
          35.381,
          35.477,
          35.572,
          35.667,
          35.763,
          35.859,
          35.955,
          36.051,
          36.147,
          36.243,
          36.34,
          36.436,
          36.533,
          36.63,
          36.726,
          36.823,
          36.92,
          37.018,
          37.115,
          37.213,
          37.31,
          37.408,
          37.506,
          37.604,
          37.702,
          37.801,
          37.899,
          37.998,
          38.096,
          38.195,
          38.294,
          38.393,
          38.492,
          38.592,
          38.691,
          38.791,
          38.891,
          38.99,
          39.09,
          39.191,
          39.291,
          39.391,
          39.492,
          39.592,
          39.693,
          39.794,
          39.895,
          39.996,
          40.097,
          40.199,
          40.3,
          40.402,
          40.503,
          40.605,
          40.707,
          40.81,
          40.912,
          41.014,
          41.117,
          41.219,
          41.322,
          41.425,
          41.528,
          41.631,
          41.734,
          41.838,
          41.941,
          42.045,
          42.149,
          42.253,
          42.357,
          42.461,
          42.566,
          42.67,
          42.775,
          42.879,
          42.984,
          43.089,
          43.194,
          43.299,
          43.405,
          43.616,
          43.722,
          43.827,
          43.933,
          44.039,
          44.146,
          44.252,
          44.359,
          44.465,
          44.572,
          44.679,
          44.786,
          44.893,
          45.0,
          45.108,
          45.215,
          45.323,
          45.431,
          45.539,
          45.647,
          45.755,
          45.863,
          45.971,
          46.08,
          46.189,
          46.297,
          46.406,
          46.516,
          46.625,
          46.734,
          46.843,
          46.953,
          47.063,
          47.173,
          47.282,
          47.393,
          47.503,
          47.613,
          47.724,
          47.834,
          47.945,
          48.056,
          48.167,
          48.278,
          48.389,
          48.501,
          48.612,
          48.724,
          48.835,
          48.947,
          49.059,
          49.171,
          49.284,
          49.396,
          49.508,
          49.621,
          49.734,
          49.847,
          49.96,
          50.073,
          50.186,
          50.3,
          50.413,
          50.527,
          50.641,
          50.755,
          50.869,
          50.983,
          51.097,
          51.212,
          51.326,
          51.441,
          51.556,
          51.671,
          51.786,
          51.901,
          52.016,
          52.132,
          52.247,
          52.363,
          52.479,
          52.595,
          52.711,
          52.827,
          52.944,
          53.06,
          53.177,
          53.293,
          53.41,
          53.527,
          53.644,
          53.762,
          53.879,
          53.996,
          54.114,
          54.232,
          54.35,
          54.468,
          54.586,
          54.704,
          54.823,
          54.941,
          55.06,
          55.536,
          55.655,
          55.774,
          55.894,
          56.014,
          56.133,
          56.253,
          56.374,
          56.494,
          56.614,
          56.734,
          56.855,
          56.976,
          57.097,
          57.218,
          57.339,
          57.46,
          57.581,
          57.703,
          57.824,
          57.946,
          58.068,
          58.19,
          58.312,
          58.434,
          58.557,
          58.679,
          58.802,
          58.925,
          59.047,
          59.17,
          59.294,
          59.417,
          59.54,
          59.664,
          59.787,
          59.911,
          60.035,
          60.159,
          60.407,
          60.532,
          60.657,
          60.781,
          60.906,
          61.031,
          61.156,
          61.281,
          61.407,
          61.532,
          61.657,
          61.783,
          61.909,
          62.035,
          62.161,
          62.287,
          62.414,
          62.54,
          62.667,
          62.793,
          62.92,
          63.047,
          63.174,
          63.302,
          63.429,
          63.556,
          63.684,
          63.812,
          63.94,
          64.068,
          64.196,
          64.324,
          64.452,
          64.581,
          64.71,
          64.838,
          64.967,
          65.096,
          65.225,
          65.355,
          65.484,
          65.614,
          65.743,
          65.873,
          66.003,
          66.133,
          66.263,
          66.394,
          66.524,
          66.655,
          66.785,
          66.916,
          67.047,
          67.178,
          67.309,
          67.441,
          67.572,
          67.704,
          67.835,
          67.967,
          68.099,
          68.231,
          68.364,
          68.496,
          68.628,
          68.761,
          68.894,
          69.027,
          69.16,
          69.293,
          69.426,
          69.559,
          69.693,
          69.826,
          69.96,
          70.094,
          70.228,
          70.362,
          70.497,
          70.631,
          70.766,
          70.9,
          71.17,
          71.305,
          71.44,
          71.576,
          71.711,
          71.846,
          71.982,
          72.118,
          72.254,
          72.39,
          72.526,
          72.662,
          72.799,
          72.936,
          73.072,
          73.209,
          73.346,
          73.483,
          73.62,
          73.758,
          73.895,
          74.033,
          74.171,
          74.308,
          74.446,
          74.584,
          74.861,
          74.999,
          75.138,
          75.277,
          75.416,
          75.555,
          75.694,
          75.833,
          75.973,
          76.112,
          76.392,
          76.531,
          76.671,
          76.812,
          76.952,
          77.092,
          77.514,
          77.655,
          77.938,
          78.079,
          78.362,
          78.504,
          78.645,
          78.787,
          78.93,
          79.072,
          79.214,
          79.356,
          79.499,
          79.642,
          79.785,
          79.928,
          80.071,
          80.357,
          80.501,
          80.644,
          80.788,
          80.932,
          81.076,
          81.22,
          81.365,
          81.509,
          81.653,
          81.798,
          81.943,
          82.088,
          82.233,
          82.378,
          82.523,
          82.669,
          82.814,
          82.96,
          83.106,
          83.251,
          83.398,
          83.544,
          83.69,
          83.837,
          83.983,
          84.13,
          84.277,
          84.424,
          84.571,
          84.718,
          84.865,
          85.013,
          85.16,
          85.308,
          85.456,
          85.604,
          85.752,
          85.9,
          86.048,
          86.197,
          86.346,
          86.494,
          86.643,
          86.792,
          86.941,
          87.091,
          87.24,
          87.389,
          87.539,
          87.689,
          87.839,
          87.989,
          88.139,
          88.289,
          88.439,
          88.59,
          88.741,
          88.891,
          89.042,
          89.193,
          89.345,
          89.496,
          89.799,
          89.951,
          90.102,
          90.254,
          90.406,
          90.559,
          90.711,
          90.863,
          91.016,
          91.169,
          91.322,
          91.475,
          91.627,
          91.781,
          91.934,
          92.088,
          92.241,
          92.395,
          92.549,
          92.703,
          92.857,
          93.011,
          93.165,
          93.32,
          93.475,
          93.629,
          93.784,
          93.939,
          94.094,
          94.25,
          94.405,
          94.561,
          94.872,
          95.028,
          95.184,
          95.34,
          95.653,
          95.809,
          96.123,
          96.28,
          96.437,
          96.594,
          96.751,
          96.909,
          97.066,
          97.224,
          97.382,
          97.54,
          97.698,
          97.856,
          98.014,
          98.173,
          98.332,
          98.49,
          98.649,
          98.808,
          98.967,
          99.126,
          99.286,
          99.445,
          99.605,
          99.765,
          99.925,
          100.08
        ],
        [
          240.66,
          200.037,
          289.874,
          261.218,
          160.598,
          287.026,
          198.149,
          206.825,
          164.791,
          231.404,
          185.357,
          188.67,
          201.392,
          259.193,
          236.555,
          250.69,
          199.611,
          229.268,
          191.602,
          246.625,
          186.211,
          206.264,
          237.046,
          211.26,
          214.605,
          195.926,
          216.907,
          208.676,
          164.064,
          196.611,
          228.509,
          241.773,
          215.381,
          201.241,
          219.673,
          238.935,
          225.84,
          224.06,
          169.326,
          190.691,
          161.313,
          253.511,
          224.229,
          215.173,
          165.893,
          163.181,
          172.801,
          208.791,
          169.25,
          149.855,
          167.686,
          185.021,
          158.357,
          143.984,
          169.348,
          151.616,
          159.82,
          145.995,
          126.564,
          149.455,
          161.713,
          156.835,
          126.296,
          135.853,
          115.461,
          133.389,
          112.417,
          147.646,
          120.399,
          85.1916,
          70.4337,
          77.4213,
          119.573,
          100.331,
          88.1949,
          96.5601,
          107.649,
          53.7496,
          39.8315,
          85.64,
          86.599,
          97.0796,
          120.392,
          97.3569,
          47.9502,
          118.803,
          95.9028,
          109.076,
          122.29,
          176.392,
          220.507,
          255.065,
          257.529,
          362.914,
          401.889,
          511.68,
          540.658,
          567.889,
          595.595,
          557.697,
          479.424,
          418.515,
          403.093,
          395.643,
          338.962,
          307.962,
          294.722,
          277.054,
          283.353,
          260.112,
          241.663,
          250.732,
          219.272,
          207.181,
          198.457,
          203.835,
          179.967,
          186.24,
          206.208,
          205.098,
          197.945,
          215.668,
          156.904,
          165.836,
          167.69,
          145.867,
          119.233,
          112.617,
          70.1877,
          73.3463,
          69.5824,
          58.1451,
          39.1308,
          42.5666,
          7.82144,
          17.7982,
          6.66391,
          50.1772,
          22.1795,
          14.447,
          24.6104,
          6.93853,
          30.4474,
          44.8269,
          25.1667,
          65.1715,
          35.817,
          23.9631,
          60.2464,
          79.9707,
          65.0763,
          43.0724,
          60.7168,
          23.5595,
          18.9514,
          35.8022,
          72.7821,
          26.437,
          19.1593,
          58.7159,
          56.9132,
          52.8242,
          70.2094,
          83.7092,
          34.565,
          68.6901,
          59.2013,
          51.2725,
          82.0946,
          95.596,
          118.968,
          146.531,
          144.469,
          125.399,
          179.153,
          188.331,
          229.495,
          273.849,
          319.533,
          356.932,
          419.373,
          494.796,
          625.896,
          732.104,
          855.071,
          1063.63,
          1157.68,
          1245.96,
          1207.05,
          1125.66,
          1009.38,
          953.956,
          804.221,
          712.567,
          571.187,
          469.092,
          443.765,
          376.528,
          340.868,
          318.296,
          279.655,
          244.414,
          236.965,
          210.24,
          202.156,
          186.979,
          157.992,
          151.871,
          144.474,
          154.396,
          136.015,
          120.434,
          108.369,
          107.818,
          123.017,
          93.301,
          94.6007,
          110.99,
          71.1161,
          72.1354,
          82.4219,
          95.279,
          109.724,
          93.3343,
          82.6461,
          120.653,
          96.4137,
          61.7703,
          85.6396,
          80.2972,
          50.2623,
          60.0074,
          78.2964,
          53.6008,
          80.8225,
          74.1578,
          56.7547,
          54.964,
          50.9864,
          45.5266,
          48.5851,
          67.91,
          45.1787,
          42.3053,
          30.2293,
          43.0946,
          39.8739,
          34.1677,
          51.9073,
          28.3517,
          50.4898,
          63.0894,
          70.6515,
          101.122,
          109.334,
          161.264,
          228.743,
          415.391,
          664.723,
          944.624,
          1147.64,
          1108.26,
          819.602,
          610.671,
          432.118,
          339.969,
          258.215,
          234.311,
          185.597,
          180.955,
          134.268,
          105.009,
          115.231,
          107.575,
          126.208,
          100.61,
          111.294,
          106.313,
          108.973,
          98.238,
          109.482,
          99.9869,
          104.132,
          114.608,
          125.566,
          111.465,
          138.541,
          145.218,
          161.464,
          156.405,
          139.957,
          166.34,
          163.365,
          184.717,
          154.69,
          162.06,
          189.197,
          152.976,
          87.6503,
          59.838,
          66.3021,
          46.5344,
          58.7983,
          65.0924,
          79.9035,
          70.3355,
          65.0278,
          87.9478,
          56.5614,
          83.9115,
          76.6148,
          89.1627,
          73.888,
          112.004,
          77.9331,
          70.8708,
          109.152,
          70.1196,
          79.2369,
          67.1654,
          59.9757,
          51.0151,
          49.9933,
          82.9279,
          45.6874,
          28.4052,
          51.5858,
          31.6478,
          27.4404,
          10.0374,
          30.7715,
          37.5221,
          27.2762,
          40.7095,
          42.8142,
          91.1849,
          124.645,
          211.442,
          282.811,
          271.001,
          228.329,
          128.751,
          100.539,
          78.7163,
          57.2336,
          33.3997,
          43.9099,
          7.9351,
          29.5844,
          10.5269,
          24.1061,
          26.0809,
          17.8238,
          32.3045,
          19.2624,
          27.4045,
          15.0749,
          8.136,
          9.57777,
          18.5646,
          14.0411,
          23.0274,
          4.65115,
          1.74536,
          19.7364,
          9.34408,
          17.5187,
          7.58101,
          0.602582,
          31.2945,
          23.4593,
          6.58961,
          12.8385,
          20.2306,
          9.46862,
          17.5993,
          28.3871,
          35.665,
          30.3344,
          50.4329,
          26.1407,
          64.9265,
          86.1173,
          110.351,
          57.3112,
          53.8605,
          6.51273,
          9.09617,
          14.0092,
          15.1325,
          40.8141,
          1.34205,
          0.471197,
          16.1976,
          3.42534,
          28.1891,
          21.5496,
          15.4718,
          12.4464,
          1.59879,
          20.8693,
          8.6495,
          30.8045,
          27.4208,
          61.9627,
          92.2611,
          102.406,
          124.159,
          81.8173,
          78.0708,
          41.5145,
          11.8244,
          16.1728,
          18.8181,
          3.95053,
          16.0868,
          8.09219,
          10.2291,
          9.51867,
          19.6349,
          4.55896,
          28.0876,
          13.6402,
          17.7997,
          10.0816,
          0.81949,
          6.75917,
          22.2747,
          22.3435,
          13.308,
          10.3494,
          19.5383,
          6.40691,
          5.98135,
          16.9839,
          8.77785,
          12.2913,
          4.83245,
          1.40782,
          19.8749,
          20.3317,
          3.60516,
          16.0483,
          7.93332,
          27.1989,
          51.4596,
          18.3635,
          21.4899,
          20.0722,
          16.756,
          4.08098,
          17.8294,
          17.9716,
          25.8763,
          16.139,
          11.0117,
          25.6613,
          22.9185,
          13.3274,
          41.6664,
          23.5872,
          32.5446,
          60.4298,
          59.6463,
          94.8636,
          112.112,
          125.873,
          178.228,
          196.999,
          263.052,
          255.806,
          261.866,
          215.92,
          203.253,
          164.664,
          162.771,
          108.549,
          96.0528,
          87.8159,
          92.4022,
          84.3532,
          75.4137,
          52.0136,
          69.7142,
          39.7306,
          63.2461,
          50.244,
          54.8556,
          54.0702,
          45.2061,
          33.7474,
          49.6098,
          55.9614,
          34.1963,
          66.6947,
          34.5699,
          20.6053,
          57.9131,
          40.2482,
          50.5964,
          59.8293,
          38.7152,
          62.9096,
          40.1648,
          53.4641,
          52.9025,
          53.9381,
          81.5375,
          72.8657,
          101.874,
          93.3051,
          136.531,
          172.143,
          275.312,
          314.672,
          371.394,
          269.666,
          157.69,
          81.9742,
          25.5298,
          20.1493,
          28.0538,
          11.4449,
          12.7153,
          20.9507,
          16.9948,
          14.4444,
          6.95668,
          17.1013,
          24.8379,
          6.8265,
          9.71354,
          17.0767,
          47.0521,
          42.6057,
          72.6461,
          101.403,
          102.524,
          77.4009,
          48.694,
          47.3326,
          29.2515,
          3.46469,
          39.0613,
          40.0034,
          61.1141,
          102.294,
          45.4962,
          64.3046,
          38.9216,
          18.5974,
          14.6822,
          7.4608,
          13.5531,
          8.47739,
          15.7099,
          23.5003,
          30.0109,
          43.231,
          45.2762,
          66.309,
          87.9181,
          154.823,
          183.805,
          218.509,
          252.583,
          290.518,
          253.875,
          216.898,
          144.366,
          100.163,
          75.9758,
          41.6265,
          40.0935,
          24.0906,
          29.1295,
          28.6559,
          23.3825,
          26.7698,
          30.791,
          22.2773,
          23.9836,
          39.0015,
          28.1588,
          22.9986,
          30.7843,
          42.1567,
          55.006,
          51.484,
          42.0392,
          59.7924,
          43.7273,
          35.1144,
          73.0827,
          54.2606,
          42.4653,
          58.5779,
          42.4765,
          47.7539,
          19.0602,
          20.7071,
          45.2087,
          35.1159,
          30.746,
          41.0069,
          36.6575,
          44.4795,
          39.4543,
          31.1143,
          69.0434,
          50.264,
          37.3057,
          56.5134,
          60.2368,
          47.8292,
          61.586,
          53.1037,
          67.9525,
          48.3824,
          49.041,
          62.1623,
          72.9867,
          73.3666,
          86.3332,
          78.3646,
          61.8426,
          60.0428,
          94.3018,
          68.5582,
          75.1063,
          55.9576,
          92.8513,
          68.0225,
          78.317,
          109.236,
          117.6,
          100.329,
          167.818,
          157.066,
          194.349,
          211.884,
          164.988,
          111.434,
          72.4386,
          44.0265,
          36.3321,
          35.4362,
          28.2341,
          27.2067,
          11.2439,
          11.7942,
          26.332,
          44.3427,
          34.1319,
          26.3817,
          15.8393,
          34.8637,
          39.9357,
          31.2958,
          22.5574,
          14.1991,
          17.809,
          15.3459,
          8.05101,
          15.84,
          14.2476,
          15.6726,
          27.0539,
          25.4138,
          47.7893,
          44.7871,
          66.4878,
          60.03,
          58.9414,
          52.9196,
          41.2555,
          76.0283,
          57.3501,
          87.6351,
          87.6488,
          129.143,
          148.101,
          170.544,
          201.924,
          184.907,
          142.115,
          105.496,
          105.321,
          63.738,
          47.4979,
          50.2164,
          42.9172,
          41.2507,
          25.8098,
          24.7886,
          32.2417,
          10.9108,
          5.97319,
          23.7918,
          48.1964,
          85.1037,
          102.805,
          146.492,
          97.9484,
          103.622,
          58.5181,
          44.993,
          103.949,
          78.2569,
          57.9534,
          40.2436,
          24.9087,
          18.5223,
          9.35374,
          31.4545,
          12.9525,
          4.1006,
          40.2186,
          65.8708,
          64.0648,
          77.0187,
          71.5468,
          95.9108,
          48.4533,
          76.557,
          55.9458,
          35.7937,
          39.5814,
          17.4749,
          31.962,
          32.3299,
          34.5393,
          56.0809,
          31.2471,
          36.5115,
          33.4961,
          15.8708,
          48.1646,
          28.6831,
          33.3941,
          30.5752,
          27.2722,
          19.6383,
          51.0645,
          69.1057,
          46.9439,
          90.0721,
          137.46,
          121.268,
          117.072,
          80.841,
          52.7555,
          47.6832,
          40.8518,
          56.1712,
          56.8169,
          60.8013,
          59.7945,
          53.1211,
          68.9191,
          88.0449,
          111.387,
          99.2399,
          124.821,
          115.929,
          113.995,
          93.7525,
          119.242,
          72.3104,
          118.058,
          84.0163,
          95.8058,
          77.8958,
          119.79,
          78.4233,
          79.768,
          81.736,
          75.1085,
          75.4856,
          88.1569,
          70.5611,
          99.1421,
          60.1942,
          71.4536,
          78.5268,
          83.613,
          78.6751,
          109.52,
          82.3855,
          87.9851,
          80.2077,
          75.6006,
          92.7627,
          107.185,
          101.57,
          117.708,
          127.346,
          159.655,
          169.902,
          200.024,
          223.607,
          265.572,
          231.779,
          227.8,
          173.21,
          122.876,
          84.101,
          61.4525,
          0.016092,
          32.1852,
          16.8853,
          17.4355,
          9.54768,
          15.6559,
          2.8551,
          31.3174,
          12.3287,
          17.5262,
          19.641,
          33.453,
          21.8508,
          58.6767,
          36.1354,
          32.5414,
          19.0796,
          12.797,
          26.8307,
          16.2295,
          1.51527,
          21.0452,
          19.5851,
          29.4452,
          44.6472,
          60.6987,
          94.8909,
          122.776,
          181.307,
          279.205,
          328.357,
          409.577,
          322.005,
          230.046,
          214.631,
          157.514,
          93.064,
          57.5928,
          33.8609,
          25.2592,
          19.7445,
          17.3904,
          21.2508,
          22.6288,
          9.38638,
          22.9309,
          14.7836,
          16.7783,
          6.29939,
          23.9418,
          24.3234,
          8.76813,
          33.9134,
          29.8454,
          22.8554,
          19.9124,
          35.7733,
          31.8731,
          26.3511,
          33.7538,
          72.1574,
          64.63,
          77.6945,
          120.841,
          141.64,
          190.464,
          211.64,
          219.92,
          230.571,
          213.767,
          174.972,
          127.541,
          98.241,
          123.418,
          54.7278,
          49.2966,
          54.8875,
          52.1736,
          47.444,
          36.5717,
          48.5719,
          54.8027,
          44.2056,
          43.7819,
          50.3729,
          24.8018,
          47.4495,
          33.8409,
          44.7772,
          42.0212,
          58.8344,
          42.2011,
          58.4606,
          42.892,
          31.2601,
          7.8722,
          6.18316,
          11.5343,
          50.3833,
          4.29014,
          27.1245,
          14.0716,
          25.1063,
          4.35743,
          38.2618,
          55.2102,
          32.9401,
          56.7175,
          40.7823,
          57.0553,
          67.1307,
          66.2185,
          59.0427,
          58.8381,
          71.8613,
          40.0725,
          40.4595,
          8.55006,
          34.5295,
          28.7381,
          12.0429,
          22.2007,
          18.5567,
          10.4423,
          3.51733,
          24.515,
          20.7848,
          25.7805,
          20.2424,
          10.8593,
          8.97936,
          31.1755,
          44.6321,
          14.946,
          70.8372,
          51.6371,
          75.7796,
          69.1766,
          78.9261,
          95.113,
          108.526,
          139.13,
          150.325,
          154.764,
          158.389,
          244.565,
          237.667,
          234.985,
          247.033,
          159.558,
          77.1462,
          45.0168,
          20.6632,
          22.4229,
          16.5297,
          2.43466,
          9.73975,
          30.1037,
          6.09264,
          16.2125,
          4.3537,
          6.84181,
          3.73778,
          9.53996,
          5.94748,
          12.9284,
          4.51088,
          7.16041,
          7.74114,
          16.2296,
          6.81108,
          2.38642,
          3.25005,
          1.37683,
          10.0494,
          5.63331,
          11.6934,
          11.0712,
          8.08865,
          14.8988,
          26.3983,
          13.6759,
          17.7381,
          11.8709,
          16.8406,
          3.18823,
          22.7129,
          13.7169,
          1.54093,
          17.0194,
          12.4361,
          21.0331,
          15.7787,
          29.6612,
          28.7211,
          20.0475,
          26.1646,
          39.4658,
          22.7804,
          26.271,
          35.7193,
          26.3987,
          8.39167,
          46.1531,
          52.4717,
          39.5398,
          72.3546,
          39.8122,
          63.142,
          18.6468,
          28.0057,
          37.6487,
          51.6537,
          84.0031,
          61.9097,
          71.6737,
          49.0136,
          61.8768,
          66.7912,
          85.4437,
          76.1926,
          86.1891,
          79.5485,
          57.9266,
          37.7638,
          25.1669,
          45.2015,
          13.1149,
          37.8055,
          39.1,
          29.7721,
          55.4156,
          43.1903,
          18.9699,
          31.1409,
          34.2449,
          28.9272,
          26.8617,
          13.3195,
          49.0918,
          21.4627,
          35.5385,
          3.63952,
          7.41699,
          26.954,
          31.425,
          67.956,
          40.8382,
          51.3002,
          47.2812,
          51.1266,
          38.8833,
          55.4001,
          63.713,
          42.2568,
          38.9022,
          35.123,
          53.5625,
          27.9569,
          60.6352,
          44.1078,
          55.1071,
          56.8147,
          70.9522,
          99.9381,
          120.282,
          119.873,
          128.597,
          129.351,
          150.765,
          138.824,
          124.771,
          134.515,
          111.583,
          94.4788,
          82.9971,
          81.7812,
          45.2686,
          33.1966,
          34.2418,
          11.1997,
          43.259,
          3.2056,
          8.84275,
          7.17887,
          9.36799,
          13.1256,
          2.53258,
          29.0475,
          2.6875,
          1.78197,
          29.7771,
          14.0705,
          32.0846,
          30.7515,
          29.7866,
          35.2222,
          17.9259,
          19.408,
          11.3419,
          30.6544,
          8.58219,
          24.8886,
          19.7661,
          1.56489,
          5.13081,
          45.7739,
          59.0538,
          78.136,
          108.274,
          88.4822,
          123.495,
          113.031,
          103.157
        ],
        [
          13.1,
          11.0,
          13.5,
          12.0,
          8.32,
          12.0,
          9.22,
          9.31,
          7.73,
          9.43,
          8.02,
          8.02,
          8.2,
          9.69,
          8.96,
          9.35,
          8.11,
          8.91,
          7.94,
          9.43,
          7.83,
          8.3,
          9.1,
          8.48,
          8.64,
          8.1,
          8.85,
          8.54,
          7.33,
          8.18,
          8.94,
          9.47,
          8.67,
          8.51,
          8.91,
          9.34,
          9.03,
          9.0,
          7.6,
          8.28,
          7.45,
          9.94,
          9.16,
          9.01,
          7.67,
          7.57,
          7.88,
          8.88,
          8.11,
          7.49,
          8.16,
          8.51,
          7.82,
          7.42,
          8.25,
          7.84,
          8.02,
          7.66,
          6.98,
          7.75,
          8.05,
          8.14,
          7.29,
          7.65,
          7.0,
          7.42,
          6.68,
          7.89,
          6.98,
          6.02,
          5.28,
          5.69,
          7.29,
          6.74,
          6.2,
          6.56,
          6.87,
          4.5,
          3.63,
          6.13,
          6.45,
          6.74,
          7.7,
          6.81,
          4.52,
          7.58,
          6.48,
          6.84,
          7.46,
          9.37,
          10.5,
          11.4,
          11.2,
          13.4,
          14.1,
          16.1,
          16.6,
          17.1,
          17.6,
          17.1,
          15.7,
          14.8,
          14.6,
          14.5,
          13.5,
          12.9,
          12.6,
          12.1,
          12.4,
          11.9,
          11.5,
          11.7,
          11.0,
          10.6,
          10.4,
          10.7,
          10.0,
          10.4,
          11.1,
          10.8,
          10.7,
          11.2,
          9.41,
          9.79,
          9.84,
          9.36,
          8.45,
          8.16,
          6.34,
          6.69,
          6.38,
          5.66,
          4.49,
          5.03,
          1.96,
          2.99,
          1.75,
          5.63,
          4.12,
          3.11,
          4.07,
          1.79,
          4.66,
          5.21,
          4.19,
          6.51,
          4.64,
          3.88,
          6.4,
          7.6,
          6.6,
          5.73,
          6.31,
          3.87,
          3.94,
          5.01,
          6.99,
          4.15,
          3.68,
          6.43,
          6.45,
          6.23,
          7.12,
          7.86,
          4.91,
          6.9,
          6.62,
          5.83,
          7.6,
          8.33,
          9.14,
          10.2,
          10.0,
          9.41,
          11.5,
          11.7,
          12.8,
          14.2,
          15.4,
          16.2,
          17.6,
          19.1,
          21.6,
          23.3,
          25.2,
          28.4,
          29.5,
          30.8,
          30.4,
          29.2,
          27.6,
          26.9,
          24.9,
          23.4,
          21.1,
          19.1,
          18.5,
          17.1,
          16.3,
          15.8,
          14.9,
          14.0,
          13.8,
          12.8,
          12.7,
          12.2,
          11.2,
          11.1,
          10.8,
          11.1,
          10.4,
          10.1,
          9.51,
          9.51,
          10.1,
          8.78,
          8.88,
          9.6,
          7.77,
          7.89,
          8.42,
          9.03,
          9.63,
          8.8,
          8.62,
          10.1,
          9.09,
          7.28,
          8.34,
          8.37,
          6.73,
          7.14,
          8.21,
          6.96,
          8.43,
          8.15,
          7.09,
          7.07,
          6.69,
          6.41,
          6.72,
          7.86,
          6.38,
          6.29,
          5.14,
          6.43,
          6.32,
          5.44,
          6.96,
          5.04,
          6.83,
          7.45,
          8.17,
          9.41,
          9.99,
          12.2,
          14.5,
          19.6,
          24.8,
          29.5,
          32.5,
          32.0,
          27.3,
          23.9,
          20.2,
          18.0,
          15.6,
          14.8,
          13.3,
          13.2,
          11.3,
          10.3,
          10.9,
          10.4,
          10.9,
          10.2,
          10.4,
          10.2,
          10.2,
          9.81,
          10.5,
          10.0,
          10.1,
          10.8,
          11.3,
          10.5,
          11.6,
          12.0,
          12.9,
          12.5,
          11.7,
          13.0,
          12.8,
          13.5,
          12.5,
          12.8,
          13.7,
          12.3,
          9.78,
          7.88,
          8.13,
          6.79,
          7.43,
          8.61,
          9.13,
          8.58,
          8.34,
          9.67,
          7.93,
          9.5,
          9.39,
          9.58,
          9.05,
          10.8,
          9.12,
          8.68,
          10.6,
          9.0,
          9.39,
          8.62,
          8.28,
          7.54,
          7.28,
          9.25,
          7.06,
          5.84,
          7.34,
          5.55,
          5.69,
          3.17,
          5.61,
          6.8,
          5.48,
          6.99,
          7.55,
          10.2,
          11.9,
          15.3,
          17.7,
          17.1,
          15.6,
          11.9,
          10.7,
          9.5,
          8.12,
          6.59,
          7.12,
          5.85,
          5.88,
          5.02,
          5.27,
          5.09,
          4.94,
          6.5,
          5.91,
          5.8,
          3.7,
          3.44,
          4.84,
          6.11,
          4.16,
          5.51,
          3.5,
          1.56,
          5.29,
          3.35,
          5.09,
          3.16,
          0.766,
          5.85,
          5.3,
          3.3,
          3.97,
          5.36,
          7.14,
          4.2,
          7.06,
          7.19,
          6.9,
          8.07,
          5.85,
          8.86,
          10.3,
          11.5,
          8.53,
          8.38,
          2.75,
          4.65,
          4.68,
          6.47,
          7.26,
          0.66,
          0.301,
          4.73,
          2.56,
          6.27,
          5.07,
          3.8,
          3.88,
          0.586,
          5.27,
          4.58,
          6.18,
          5.7,
          8.78,
          10.9,
          11.2,
          12.6,
          9.72,
          9.75,
          7.24,
          3.54,
          8.16,
          4.96,
          4.98,
          5.25,
          3.23,
          3.48,
          3.93,
          6.04,
          4.65,
          6.02,
          4.37,
          4.65,
          5.46,
          0.387,
          3.18,
          6.29,
          5.25,
          5.61,
          11.5,
          6.66,
          5.77,
          2.98,
          5.08,
          4.01,
          5.11,
          3.11,
          0.972,
          5.33,
          5.13,
          2.68,
          4.85,
          3.97,
          6.89,
          8.31,
          5.45,
          6.11,
          5.8,
          4.95,
          2.01,
          5.4,
          5.66,
          5.58,
          9.72,
          28.9,
          6.77,
          5.97,
          4.36,
          7.76,
          5.89,
          6.76,
          9.4,
          9.18,
          11.7,
          12.9,
          13.5,
          16.3,
          16.7,
          19.3,
          19.1,
          19.2,
          17.4,
          17.0,
          15.2,
          15.7,
          12.5,
          11.5,
          11.8,
          12.0,
          11.0,
          10.6,
          8.97,
          9.83,
          8.63,
          9.4,
          8.47,
          9.0,
          9.52,
          7.76,
          7.46,
          8.08,
          9.05,
          7.25,
          9.95,
          8.22,
          6.91,
          9.33,
          8.62,
          8.86,
          9.25,
          7.34,
          9.49,
          8.41,
          9.99,
          8.79,
          8.96,
          11.1,
          10.7,
          12.3,
          12.0,
          14.9,
          16.2,
          20.3,
          21.7,
          23.3,
          19.8,
          15.5,
          11.1,
          6.86,
          5.98,
          7.06,
          3.95,
          4.47,
          7.35,
          4.83,
          5.96,
          11.8,
          5.15,
          5.56,
          4.37,
          5.38,
          7.27,
          8.84,
          7.95,
          11.0,
          12.2,
          12.6,
          11.2,
          9.01,
          8.81,
          7.2,
          3.51,
          8.92,
          9.18,
          12.3,
          15.6,
          11.5,
          11.7,
          8.35,
          6.38,
          5.16,
          3.68,
          4.7,
          3.71,
          7.6,
          7.52,
          7.77,
          9.26,
          8.85,
          10.0,
          11.8,
          15.7,
          17.3,
          18.4,
          20.4,
          21.4,
          20.3,
          18.5,
          15.0,
          12.7,
          10.6,
          8.91,
          7.85,
          7.47,
          7.97,
          6.37,
          6.45,
          8.09,
          7.57,
          6.89,
          7.44,
          8.32,
          6.8,
          6.84,
          8.44,
          8.34,
          9.27,
          8.95,
          8.79,
          10.6,
          8.7,
          8.03,
          10.6,
          9.97,
          9.4,
          9.79,
          8.72,
          9.54,
          6.61,
          5.78,
          9.49,
          7.65,
          8.29,
          8.71,
          8.28,
          8.52,
          7.79,
          7.81,
          10.3,
          9.16,
          9.16,
          10.3,
          10.4,
          9.46,
          10.6,
          9.92,
          10.7,
          8.24,
          9.88,
          10.8,
          11.6,
          11.5,
          12.2,
          11.4,
          11.0,
          9.66,
          12.9,
          11.2,
          11.3,
          10.0,
          12.3,
          10.9,
          11.1,
          14.2,
          14.1,
          13.7,
          17.1,
          16.6,
          18.5,
          18.8,
          16.1,
          13.4,
          11.1,
          9.34,
          8.25,
          7.54,
          7.2,
          7.1,
          4.2,
          3.92,
          7.41,
          8.7,
          7.75,
          6.85,
          5.25,
          8.04,
          9.3,
          7.79,
          5.9,
          4.85,
          5.93,
          4.73,
          4.04,
          6.74,
          5.54,
          4.82,
          7.63,
          6.74,
          9.66,
          8.59,
          10.6,
          10.1,
          10.1,
          10.1,
          8.24,
          12.3,
          10.0,
          13.2,
          12.6,
          15.2,
          16.1,
          17.8,
          18.9,
          18.2,
          15.3,
          13.0,
          13.5,
          10.5,
          10.8,
          9.5,
          8.5,
          9.26,
          7.29,
          7.62,
          8.03,
          6.41,
          1.95,
          7.76,
          10.0,
          12.9,
          13.8,
          16.1,
          13.4,
          14.0,
          10.8,
          9.94,
          14.3,
          12.4,
          10.9,
          8.33,
          8.34,
          7.57,
          5.1,
          7.83,
          7.34,
          4.26,
          8.34,
          11.2,
          10.7,
          11.9,
          11.8,
          12.9,
          9.91,
          11.9,
          10.1,
          8.39,
          8.48,
          5.33,
          6.87,
          8.48,
          7.4,
          10.8,
          8.54,
          8.01,
          8.65,
          6.11,
          10.0,
          7.42,
          8.42,
          7.75,
          6.78,
          6.22,
          9.81,
          11.5,
          10.3,
          13.3,
          16.1,
          15.8,
          14.7,
          11.5,
          10.2,
          8.84,
          7.98,
          11.4,
          10.5,
          10.8,
          10.0,
          11.1,
          11.1,
          13.5,
          14.5,
          13.8,
          15.3,
          15.1,
          14.5,
          13.1,
          15.6,
          11.9,
          15.5,
          13.1,
          13.2,
          12.5,
          15.3,
          12.6,
          12.9,
          13.0,
          11.5,
          13.0,
          13.4,
          11.6,
          14.9,
          11.8,
          12.3,
          12.5,
          13.2,
          12.4,
          15.4,
          13.4,
          12.9,
          11.9,
          12.4,
          14.4,
          14.5,
          14.3,
          15.0,
          15.6,
          17.9,
          19.0,
          20.3,
          21.8,
          23.5,
          21.5,
          21.0,
          18.5,
          14.5,
          13.6,
          11.3,
          0.024,
          8.28,
          6.12,
          7.8,
          5.96,
          5.7,
          2.27,
          7.47,
          9.9,
          5.74,
          7.84,
          9.02,
          7.73,
          11.6,
          11.1,
          8.8,
          5.62,
          6.79,
          7.47,
          6.01,
          3.87,
          6.66,
          7.56,
          9.32,
          9.84,
          11.7,
          14.3,
          16.6,
          19.9,
          24.2,
          25.7,
          28.6,
          25.8,
          21.5,
          21.5,
          17.7,
          13.3,
          10.8,
          8.91,
          7.26,
          6.78,
          5.67,
          8.51,
          6.55,
          5.02,
          7.97,
          7.94,
          5.87,
          3.56,
          7.29,
          7.71,
          4.62,
          9.2,
          8.04,
          9.16,
          7.19,
          8.28,
          8.11,
          8.34,
          10.5,
          12.7,
          12.5,
          14.4,
          16.5,
          17.3,
          20.3,
          21.6,
          21.6,
          21.9,
          21.8,
          19.2,
          17.6,
          14.6,
          16.9,
          11.7,
          9.42,
          10.7,
          10.2,
          11.2,
          9.01,
          10.8,
          10.9,
          10.3,
          10.8,
          11.4,
          7.33,
          10.0,
          8.15,
          10.6,
          10.2,
          11.4,
          13.0,
          12.2,
          13.3,
          9.45,
          11.6,
          3.95,
          5.77,
          10.5,
          15.3,
          7.89,
          4.72,
          6.48,
          4.09,
          10.8,
          12.2,
          9.11,
          11.3,
          8.8,
          11.5,
          11.9,
          12.2,
          10.8,
          10.8,
          13.5,
          9.95,
          8.56,
          6.52,
          9.55,
          9.26,
          6.18,
          6.17,
          8.75,
          5.31,
          1.46,
          10.6,
          8.06,
          10.2,
          7.22,
          6.49,
          5.52,
          9.45,
          11.1,
          6.5,
          13.3,
          11.6,
          13.7,
          13.0,
          14.5,
          14.8,
          16.6,
          18.9,
          18.1,
          19.8,
          19.1,
          23.7,
          22.0,
          22.8,
          23.1,
          18.9,
          13.1,
          10.1,
          6.12,
          7.09,
          7.48,
          3.26,
          4.32,
          7.66,
          6.59,
          6.34,
          2.53,
          19.2,
          1.77,
          4.13,
          3.39,
          5.23,
          3.04,
          8.4,
          4.8,
          6.03,
          4.29,
          1.73,
          2.83,
          1.49,
          5.58,
          4.99,
          4.93,
          22.8,
          5.93,
          5.7,
          9.57,
          8.37,
          9.19,
          4.46,
          6.26,
          132.0,
          8.34,
          8.5,
          0.652,
          7.42,
          6.27,
          7.68,
          9.61,
          8.92,
          8.11,
          6.41,
          7.08,
          11.3,
          6.67,
          8.91,
          9.16,
          7.07,
          4.7,
          11.8,
          11.8,
          9.54,
          14.4,
          9.98,
          12.7,
          6.02,
          10.0,
          9.93,
          12.6,
          17.6,
          13.7,
          16.5,
          11.9,
          14.4,
          16.1,
          15.5,
          14.6,
          15.2,
          14.2,
          11.4,
          9.93,
          8.55,
          11.4,
          7.47,
          9.55,
          9.51,
          8.19,
          12.6,
          11.0,
          6.31,
          7.88,
          9.52,
          9.02,
          9.01,
          7.08,
          14.5,
          8.28,
          12.4,
          1.63,
          4.58,
          35.0,
          16.7,
          23.0,
          25.9,
          31.7,
          24.8,
          21.4,
          12.4,
          13.0,
          12.9,
          10.7,
          10.5,
          10.4,
          13.2,
          7.41,
          12.9,
          11.2,
          12.0,
          13.2,
          14.4,
          16.2,
          16.5,
          17.5,
          17.3,
          17.7,
          19.3,
          17.8,
          17.9,
          18.4,
          15.7,
          15.9,
          14.8,
          15.0,
          10.9,
          8.63,
          9.77,
          5.56,
          12.8,
          2.22,
          8.82,
          5.39,
          5.74,
          9.43,
          4.13,
          9.19,
          2.92,
          0.972,
          7.83,
          6.4,
          7.72,
          8.81,
          8.31,
          9.34,
          7.18,
          6.78,
          5.81,
          8.81,
          12.5,
          9.64,
          7.93,
          0.956,
          3.41,
          13.8,
          15.4,
          16.2,
          17.5,
          15.6,
          18.6,
          16.2,
          15.2
        ]
      ]
    }
  },
  "23120-004": {
    "reaction": {
      "0": {
        "x4_code": "(96-CM-245(N,F),,RI,,LIM)",
        "0": {
          "code": [
            "96-CM-245",
            [
              "N,F"
            ],
            ",,RI,,LIM"
          ],
          "type": null,
          "target": "96-CM-245",
          "process": "N,F",
          "sf49": ",,RI,,LIM",
          "sf4": null,
          "sf5": null,
          "sf6": "RI",
          "sf7": null,
          "sf8": "LIM",
          "sf9": null
        },
        "type": null,
        "free_text": ""
      }
    },
    "extra_information": {
      "err-analys": {
        "0": [
          {
            "x4_code": "(DATA-ERR)",
            "free_txt": [
              " Not specified, probably total."
            ]
          }
        ]
      },
      "rel-ref": {
        "0": [
          {
            "x4_code": "(A,10730001,J.C.Brown+,J,NSE,65,166,1978)",
            "free_txt": []
          },
          {
            "x4_code": "(A,10121001,M.S.Moore+,J,PR/C,3,1656,1971)",
            "free_txt": []
          },
          {
            "x4_code": "(D,13993001,R M.White+,C,79KNOX,,496,1979)",
            "free_txt": [
              " RI are compared with those of:",
              "  Energy range,ev  JEFF-3.1  Browne  Moore  White",
              "  0.5    10.       585.07    575.58",
              " 10.     20.       23.33     24.90          28.94",
              " 20.     35.       35.79     43.14   35.45  47.04",
              " 35.     63.       47.00             47.54  52.99",
              " 63.    100.       25.10             25.40",
              "100.   1000.       54.59             54.53"
            ]
          }
        ]
      },
      "sample": {
        "0": [
          {
            "x4_code": null,
            "free_txt": [
              "Curium oxide sample of 50 microg/cm**2 thickness,active",
              "diameter 15 mm was mounted in the centre of a vacuum",
              "chamber, back-to-back with B-10 layer.",
              "Isotopic composition in March 2003 : Cm-245 - 98.48%,",
              "Cm-244 - 1.11%, Cm-246 - 0.405%, Cm-247 - 0.008%,",
              "Cm-248 - 0.002%."
            ]
          }
        ]
      },
      "status": {
        "0": [
          {
            "x4_code": "(TABLE)",
            "free_txt": [
              " Table 2 of J,KPS,58,(1506),2011."
            ]
          },
          {
            "x4_code": "(PRELM)",
            "free_txt": [
              " Preliminary results."
            ]
          }
        ]
      }
    },
    "common": null,
    "data": {
      "heads": [
        "EN-MIN",
        "EN-MAX",
        "DATA",
        "DATA-ERR"
      ],
      "units": [
        "EV",
        "EV",
        "B",
        "B"
      ],
      "data": [
        [
          0.5,
          10.0,
          20.0,
          35.0,
          63.0,
          100.0
        ],
        [
          10.0,
          20.0,
          35.0,
          63.0,
          100.0,
          1000.0
        ],
        [
          591.0,
          23.0,
          39.0,
          42.0,
          21.0,
          49.0
        ],
        [
          21.0,
          4.0,
          6.0,
          6.0,
          5.0,
          22.0
        ]
      ]
    }
  }
}