{
  "entry": "13774",
  "last_updated": "2017-05-04",
  "number_of_revisions": "4",
  "histories": [
    {
      "x4_code": "(20010926C)",
      "free_txt": []
    },
    {
      "x4_code": "(20160729U)",
      "free_txt": [
        " OS. Author name corrected."
      ]
    }
  ],
  "bib_record": {
    "title": "Neutron capture and absorption of 59Ni for thermal and resonance-energy neutrons",
    "authors": [
      {
        "name": "S.Raman"
      },
      {
        "name": "E.T.Jurney"
      },
      {
        "name": "J.A.Harvey"
      },
      {
        "name": "N.W.Hill"
      }
    ],
    "institutes": [
      {
        "x4_code": "(1USAORL)",
        "free_txt": []
      }
    ],
    "references": [
      {
        "x4_code": "(P,ORNL-5025,110,197505)",
        "free_txt": [],
        "publication_year": "1975",
        "pointer": "0"
      }
    ],
    "facilities": [
      {
        "x4_code": "(LINAC,1USAORL)",
        "free_txt": [
          " ORELA"
        ],
        "pointer": "0",
        "facility_type": "(LINAC)",
        "institute": "(1USAORL)"
      }
    ]
  },
  "reactions": {
    "002": {
      "0": {
        "x4_code": "(28-NI-59(N,TOT),,SIG)",
        "children": [
          {
            "code": [
              "28-NI-59",
              [
                "N,TOT"
              ],
              ",,SIG"
            ],
            "type": null,
            "target": "28-NI-59",
            "process": "N,TOT",
            "sf49": ",,SIG",
            "sf4": null,
            "sf5": null,
            "sf6": "SIG",
            "sf7": null,
            "sf8": null,
            "sf9": null
          }
        ],
        "type": null,
        "free_text": " Run ID: 8180"
      }
    },
    "003": {
      "0": {
        "x4_code": "(28-NI-59(N,TOT),,SIG)",
        "children": [
          {
            "code": [
              "28-NI-59",
              [
                "N,TOT"
              ],
              ",,SIG"
            ],
            "type": null,
            "target": "28-NI-59",
            "process": "N,TOT",
            "sf49": ",,SIG",
            "sf4": null,
            "sf5": null,
            "sf6": "SIG",
            "sf7": null,
            "sf8": null,
            "sf9": null
          }
        ],
        "type": null,
        "free_text": " Run ID: 8231."
      }
    },
    "004": {
      "0": {
        "x4_code": "(28-NI-59(N,TOT),,SIG)",
        "children": [
          {
            "code": [
              "28-NI-59",
              [
                "N,TOT"
              ],
              ",,SIG"
            ],
            "type": null,
            "target": "28-NI-59",
            "process": "N,TOT",
            "sf49": ",,SIG",
            "sf4": null,
            "sf5": null,
            "sf6": "SIG",
            "sf7": null,
            "sf8": null,
            "sf9": null
          }
        ],
        "type": null,
        "free_text": " Run ID: 8165"
      }
    }
  },
  "data_tables": {
    "001": {
      "common": null
    },
    "002": {
      "common": null,
      "data": {
        "heads": [
          "EN",
          "DATA",
          "DATA-ERR"
        ],
        "units": [
          "EV",
          "B",
          "B"
        ],
        "data": [
          [
            148170.0,
            138130.0,
            129070.0,
            120880.0,
            113440.0,
            106670.0,
            100480.0,
            94824.0,
            89629.0,
            84849.0,
            80441.0,
            76369.0,
            72598.0,
            69100.0,
            65848.0,
            62821.0,
            59998.0,
            57361.0,
            54894.0,
            52583.0,
            50415.0,
            48378.0,
            46462.0,
            44658.0,
            42957.0,
            41351.0,
            39834.0,
            38398.0,
            37039.0,
            35751.0,
            34529.0,
            33368.0,
            32265.0,
            31216.0,
            30217.0,
            29266.0,
            28358.0,
            27492.0,
            26666.0,
            25876.0,
            25120.0,
            24397.0,
            23705.0,
            23064.0,
            22741.0,
            22699.0,
            22657.0,
            22615.0,
            22573.0,
            22531.0,
            22489.0,
            22447.0,
            22406.0,
            22364.0,
            22323.0,
            22282.0,
            22241.0,
            22200.0,
            22159.0,
            22118.0,
            22077.0,
            22037.0,
            21996.0,
            21956.0,
            21916.0,
            21876.0,
            21836.0,
            21796.0,
            21756.0,
            21717.0,
            21677.0,
            21638.0,
            21598.0,
            21559.0,
            21520.0,
            21481.0,
            21442.0,
            21403.0,
            21365.0,
            21326.0,
            21288.0,
            21249.0,
            21211.0,
            21173.0,
            21135.0,
            21097.0,
            21059.0,
            21021.0,
            20984.0,
            20946.0,
            20909.0,
            20871.0,
            20834.0,
            20797.0,
            20760.0,
            20723.0,
            20686.0,
            20649.0,
            20613.0,
            20576.0,
            20539.0,
            20503.0,
            20467.0,
            20431.0,
            20395.0,
            20359.0,
            20323.0,
            20287.0,
            20251.0,
            20216.0,
            20180.0,
            20145.0,
            20109.0,
            20074.0,
            20039.0,
            20004.0,
            19969.0,
            19934.0,
            19899.0,
            19865.0,
            19830.0,
            19796.0,
            19761.0,
            19727.0,
            19693.0,
            19659.0,
            19624.0,
            19590.0,
            19557.0,
            19523.0,
            19489.0,
            19456.0,
            19422.0,
            19389.0,
            19125.0,
            18643.0,
            18180.0,
            17733.0,
            17303.0,
            16888.0,
            16488.0,
            16102.0,
            15730.0,
            15370.0,
            15022.0,
            14687.0,
            14362.0,
            14048.0,
            13744.0,
            13450.0,
            13165.0,
            12889.0,
            12622.0,
            12362.0,
            12111.0,
            11868.0,
            11631.0,
            11402.0,
            11179.0,
            10963.0,
            10753.0,
            10549.0,
            10351.0,
            10159.0,
            9971.1,
            9788.9,
            9693.6,
            9681.8,
            9670.0,
            9658.3,
            9646.5,
            9634.8,
            9623.1,
            9611.5,
            9599.8,
            9588.2,
            9576.6,
            9565.0,
            9553.4,
            9541.9,
            9530.4,
            9518.9,
            9507.4,
            9495.9,
            9484.5,
            9473.1,
            9461.7,
            9450.3,
            9439.0,
            9427.6,
            9416.3,
            9405.0,
            9393.8,
            9382.5,
            9371.3,
            9360.1,
            9348.9,
            9337.7,
            9326.5,
            9315.4,
            9304.3,
            9293.2,
            9282.1,
            9271.1,
            9260.0,
            9249.0,
            9238.0,
            9227.1,
            9216.1,
            9205.2,
            9194.3,
            9183.4,
            9172.5,
            9161.6,
            9150.8,
            9140.0,
            9129.2,
            9118.4,
            9107.6,
            9096.9,
            9086.2,
            9075.5,
            9064.8,
            9054.1,
            9043.5,
            9032.8,
            9022.2,
            9011.6,
            9001.0,
            8990.5,
            8980.0,
            8969.4,
            8958.9,
            8948.5,
            8938.0,
            8927.6,
            8917.1,
            8906.7,
            8896.3,
            8886.0,
            8875.6,
            8865.3,
            8855.0,
            8844.7,
            8834.4,
            8824.1,
            8813.9,
            8803.6,
            8793.4,
            8783.2,
            8773.1,
            8762.9,
            8752.8,
            8742.6,
            8732.5,
            8722.5,
            8642.6,
            8495.4,
            8351.9,
            8212.1,
            8075.7,
            7942.7,
            7813.0,
            7686.4,
            7562.8,
            7442.3,
            7324.5,
            7209.6,
            7097.3,
            7038.4,
            7031.1,
            7023.8,
            7016.6,
            7009.3,
            7002.0,
            6994.8,
            6987.6,
            6980.3,
            6973.1,
            6965.9,
            6958.7,
            6951.6,
            6944.4,
            6937.3,
            6930.1,
            6923.0,
            6915.9,
            6908.7,
            6901.7,
            6894.6,
            6887.5,
            6880.4,
            6873.4,
            6866.3,
            6859.3,
            6852.3,
            6845.3,
            6838.3,
            6831.3,
            6824.3,
            6817.3,
            6810.4,
            6803.4,
            6796.5,
            6789.6,
            6782.6,
            6775.7,
            6768.8,
            6762.0,
            6755.1,
            6748.2,
            6741.4,
            6734.5,
            6727.7,
            6720.9,
            6714.1,
            6707.3,
            6700.5,
            6693.7,
            6686.9,
            6680.2,
            6673.4,
            6666.7,
            6659.9,
            6653.2,
            6646.5,
            6639.8,
            6633.1,
            6626.5,
            6619.8,
            6613.1,
            6606.5,
            6599.8,
            6593.2,
            6586.6,
            6580.0,
            6573.4,
            6566.8,
            6560.2,
            6553.7,
            6547.1,
            6540.6,
            6534.0,
            6527.5,
            6521.0,
            6514.5,
            6508.0,
            6501.5,
            6495.0,
            6488.5,
            6482.1,
            6475.6,
            6469.2,
            6462.7,
            6456.3,
            6449.9,
            6443.5,
            6437.1,
            6430.7,
            6424.3,
            6418.0,
            6411.6,
            6405.3,
            6398.9,
            6392.6,
            6386.3,
            6380.0,
            6373.7,
            6367.4,
            6361.1,
            6354.8,
            6348.6,
            6342.3,
            6336.1,
            6329.8,
            6323.6,
            6317.4,
            6311.2,
            6305.0,
            6298.8,
            6292.6,
            6286.5,
            6280.3,
            6274.1,
            6268.0,
            6261.9,
            6255.7,
            6249.6,
            6243.5,
            6237.4,
            6231.3,
            6225.3,
            6219.2,
            6213.1,
            6207.1,
            6201.0,
            6195.0,
            6189.0,
            6182.9,
            6176.9,
            6170.9,
            6164.9,
            6159.0,
            6153.0,
            6147.0,
            6141.1,
            6135.1,
            6129.2,
            6123.2,
            6117.3,
            6111.4,
            6105.5,
            6099.6,
            6093.7,
            6087.8,
            6082.0,
            6076.1,
            6070.2,
            6064.4,
            6058.5,
            6052.7,
            6046.9,
            6041.1,
            6035.3,
            6029.5,
            6023.7,
            6017.9,
            6012.1,
            6006.4,
            6000.6,
            5994.9,
            5989.1,
            5983.4,
            5977.7,
            5972.0,
            5966.3,
            5960.6,
            5954.9,
            5949.2,
            5943.5,
            5937.9,
            5932.2,
            5926.6,
            5920.9,
            5915.3,
            5909.7,
            5904.1,
            5898.5,
            5892.9,
            5887.3,
            5881.7,
            5876.1,
            5870.5,
            5865.0,
            5859.4,
            5853.9,
            5848.3,
            5842.8,
            5837.3,
            5831.8,
            5826.3,
            5820.8,
            5815.3,
            5809.8,
            5804.3,
            5798.9,
            5793.4,
            5787.9,
            5782.5,
            5777.1,
            5771.6,
            5766.2,
            5760.8,
            5755.4,
            5750.0,
            5744.6,
            5739.2,
            5733.9,
            5728.5,
            5723.1,
            5717.8,
            5712.4,
            5707.1,
            5701.8,
            5696.4,
            5691.1,
            5685.8,
            5680.5,
            5675.2,
            5669.9,
            5664.7,
            5659.4,
            5654.1,
            5612.4,
            5535.1,
            5459.5,
            5385.4,
            5312.8,
            5241.7,
            5172.0,
            5103.6,
            5036.7,
            4971.0,
            4906.6,
            4843.4,
            4781.5,
            4720.7,
            4682.8,
            4667.0,
            4651.2,
            4635.6,
            4620.0,
            4604.5,
            4589.1,
            4573.7,
            4558.5,
            4543.3,
            4528.2,
            4513.1,
            4498.1,
            4483.3,
            4468.4,
            4453.7,
            4439.0,
            4424.4,
            4409.9,
            4395.4,
            4381.1,
            4366.7,
            4352.5,
            4338.3,
            4324.2,
            4310.2,
            4296.2,
            4282.3,
            4268.5,
            4254.7,
            4241.0,
            4227.4,
            4213.8,
            4200.3,
            4186.9,
            4173.5,
            4160.2,
            4147.0,
            4133.8,
            4120.7,
            4107.6,
            4094.6,
            4081.7,
            4068.8,
            4056.0,
            4043.2,
            4030.5,
            4017.9,
            4005.3,
            3997.5,
            3994.4,
            3991.3,
            3988.1,
            3985.0,
            3981.9,
            3978.8,
            3975.7,
            3972.6,
            3969.5,
            3966.4,
            3963.3,
            3960.2,
            3957.2,
            3954.1,
            3951.0,
            3947.9,
            3944.9,
            3941.8,
            3938.8,
            3935.7,
            3932.6,
            3929.6,
            3926.5,
            3923.5,
            3920.5,
            3917.4,
            3914.4,
            3890.3,
            3845.7,
            3801.8,
            3758.7,
            3716.3,
            3674.6,
            3633.6,
            3593.3,
            3553.7,
            3514.7,
            3476.3,
            3438.6,
            3401.5,
            3365.0,
            3329.0,
            3293.7,
            3275.0,
            3272.7,
            3270.4,
            3268.1,
            3265.8,
            3263.5,
            3261.2,
            3258.9,
            3256.6,
            3254.3,
            3252.0,
            3249.7,
            3247.4,
            3245.1,
            3242.8,
            3240.5,
            3238.3,
            3236.0,
            3233.7,
            3231.4,
            3229.2,
            3226.9,
            3224.6,
            3222.4,
            3220.1,
            3217.8,
            3215.6,
            3213.3,
            3211.1,
            3208.8,
            3206.6,
            3204.3,
            3202.1,
            3199.8,
            3197.6,
            3195.4,
            3193.1,
            3190.9,
            3188.7,
            3186.5,
            3184.2,
            3182.0,
            3179.8,
            3177.6,
            3175.4,
            3173.1,
            3170.9,
            3168.7,
            3166.5,
            3164.3,
            3162.1,
            3159.9,
            3157.7,
            3155.5,
            3153.3,
            3151.2,
            3149.0,
            3146.8,
            3144.6,
            3142.4,
            3140.2,
            3138.1,
            3135.9,
            3133.7,
            3131.5,
            3129.4,
            3127.2,
            3125.1,
            3122.9,
            3120.7,
            3118.6,
            3116.4,
            3104.6,
            3083.3,
            3062.3,
            3041.4,
            3020.8,
            3000.3,
            2980.1,
            2960.1,
            2940.3,
            2920.6,
            2901.2,
            2882.0,
            2862.9,
            2844.1,
            2825.4,
            2806.9,
            2788.6,
            2770.5,
            2752.5,
            2734.8,
            2717.2,
            2699.7,
            2682.4,
            2665.3,
            2648.4,
            2631.6,
            2615.0,
            2598.5,
            2582.2,
            2566.1,
            2550.1,
            2534.2,
            2518.5,
            2502.9,
            2487.5,
            2472.2,
            2457.1,
            2442.1,
            2427.2,
            2412.5,
            2397.9,
            2383.5,
            2369.1,
            2354.9,
            2340.9,
            2326.9,
            2313.1,
            2299.4,
            2285.8,
            2272.4,
            2259.0,
            2245.8,
            2232.7,
            2219.7,
            2206.8,
            2194.0,
            2181.4,
            2168.8,
            2156.4,
            2144.1,
            2134.9,
            2128.8,
            2122.7,
            2116.7,
            2110.7,
            2104.7,
            2098.7,
            2092.8,
            2086.9,
            2081.0,
            2075.1,
            2069.3,
            2063.5,
            2057.7,
            2052.0,
            2046.2,
            2040.5,
            2034.8,
            2029.1,
            2023.5,
            2017.9,
            2012.3,
            2008.9,
            2007.8,
            2006.7,
            2005.6,
            2004.5,
            2003.4,
            2002.3,
            2001.2,
            2000.1,
            1999.0,
            1997.9,
            1996.8,
            1995.6,
            1994.5,
            1993.4,
            1992.3,
            1991.2,
            1990.1,
            1989.0,
            1988.0,
            1986.9,
            1985.8,
            1984.7,
            1983.6,
            1982.5,
            1976.5,
            1965.7,
            1954.9,
            1944.3,
            1933.7,
            1923.2,
            1912.9,
            1902.5,
            1892.3,
            1882.2,
            1872.1,
            1862.1,
            1852.2,
            1842.4,
            1832.7,
            1823.0,
            1813.4,
            1803.9,
            1794.5,
            1785.1,
            1775.8,
            1766.6,
            1757.4,
            1748.3,
            1739.3,
            1730.4,
            1721.5,
            1712.0,
            1696.2,
            1679.0,
            1662.2,
            1645.5,
            1629.1,
            1613.0,
            1597.1,
            1581.4,
            1565.9,
            1550.7,
            1535.7,
            1520.9,
            1506.4,
            1492.0,
            1477.9,
            1463.9,
            1450.1,
            1436.6,
            1423.2,
            1410.0,
            1397.0,
            1384.2,
            1371.5,
            1359.0,
            1346.7,
            1334.6,
            1322.6,
            1310.8,
            1299.1,
            1287.6,
            1276.2,
            1265.0,
            1254.0,
            1243.1,
            1232.3,
            1221.7,
            1211.2,
            1200.8,
            1190.6,
            1180.5,
            1170.5,
            1160.7,
            1150.9,
            1141.3,
            1135.2,
            1132.3,
            1129.5,
            1126.7,
            1123.9,
            1121.1,
            1118.3,
            1115.5,
            1112.8,
            1110.0,
            1107.3,
            1104.6,
            1101.8,
            1099.1,
            1096.4,
            1093.7,
            1091.1,
            1088.4,
            1085.7,
            1083.1,
            1080.4,
            1077.8,
            1075.2,
            1072.6,
            1070.0,
            1067.4,
            1061.8,
            1053.3,
            1044.9,
            1036.6,
            1028.4,
            1020.3,
            1012.2,
            1004.3,
            996.5,
            988.76,
            981.11,
            973.55,
            966.08,
            958.7,
            951.39,
            944.17,
            937.04,
            929.98,
            923.0,
            916.1,
            909.28,
            902.54,
            895.87,
            889.27,
            882.74,
            876.29,
            869.91,
            863.59,
            857.35,
            851.17,
            845.06,
            839.02,
            833.04,
            827.12,
            821.26,
            815.47,
            809.74,
            804.07,
            798.46,
            792.91,
            787.41,
            781.97,
            776.59,
            771.26,
            765.99,
            760.77,
            755.61,
            750.5,
            745.43,
            740.42,
            735.47,
            730.56,
            725.69,
            720.88,
            716.12,
            711.4,
            706.73,
            702.1,
            697.52,
            692.99,
            688.49,
            684.05,
            679.64,
            675.28,
            670.96,
            666.68,
            662.44,
            658.24,
            654.08,
            649.97,
            645.88,
            641.84,
            637.84,
            633.87,
            629.94,
            626.05,
            622.19,
            618.37,
            614.58,
            610.83,
            607.11,
            603.43,
            599.78,
            596.16,
            592.57,
            589.02,
            586.9,
            585.67,
            584.62,
            584.27,
            583.92,
            583.58,
            583.23,
            582.88,
            582.53,
            582.18,
            581.84,
            581.49,
            581.14,
            580.8,
            580.45,
            580.1,
            579.76,
            579.41,
            579.07,
            578.72,
            578.38,
            578.03,
            577.69,
            577.35,
            577.0,
            576.66,
            576.32,
            575.98,
            575.64,
            575.29,
            574.95,
            574.61,
            574.27,
            573.93,
            573.59,
            573.25,
            572.91,
            572.57,
            572.23,
            571.9,
            571.56,
            571.22,
            569.37,
            566.02,
            562.7,
            559.42,
            556.16,
            552.93,
            549.72,
            546.55,
            543.4,
            540.28,
            537.19,
            534.12,
            531.08,
            528.06,
            525.07,
            522.11,
            519.17,
            516.26,
            513.37,
            510.5,
            507.66,
            504.84,
            502.05,
            499.27,
            496.53,
            493.8,
            491.1,
            488.41,
            485.75,
            483.12,
            480.5,
            477.9,
            475.33,
            472.78,
            470.24,
            467.73,
            465.24,
            462.77,
            460.31,
            457.88,
            455.46,
            453.07,
            450.69,
            448.33,
            445.99,
            443.67,
            441.37,
            439.08,
            436.82,
            434.57,
            432.33,
            430.12,
            427.92,
            425.74,
            423.57,
            421.43,
            419.29,
            416.33,
            412.16,
            408.06,
            404.01,
            400.02,
            396.09,
            392.22,
            388.4,
            384.64,
            380.94,
            377.28,
            373.68,
            370.13,
            366.64,
            363.19,
            360.63,
            358.94,
            357.26,
            355.6,
            353.95,
            352.3,
            350.67,
            349.06,
            347.45,
            345.85,
            344.26,
            342.69,
            341.13,
            339.57,
            338.03,
            336.5,
            334.98,
            333.46,
            331.96,
            330.47,
            328.99,
            327.52,
            326.06,
            324.6,
            323.16,
            321.73,
            320.31,
            318.89,
            317.49,
            316.09,
            314.71,
            313.33,
            311.96,
            310.6,
            309.79,
            309.52,
            309.25,
            308.99,
            308.72,
            308.45,
            308.18,
            307.91,
            307.65,
            307.38,
            307.11,
            306.85,
            306.58,
            306.32,
            306.05,
            305.79,
            305.52,
            305.26,
            304.99,
            304.73,
            304.47,
            304.2,
            303.94,
            303.68,
            303.42,
            301.99,
            299.41,
            296.86,
            294.34,
            291.86,
            289.41,
            286.99,
            284.6,
            282.24,
            279.91,
            277.6,
            275.33,
            273.08,
            270.86,
            268.67,
            266.5,
            264.36,
            262.25,
            260.16,
            258.1,
            256.06,
            254.04,
            252.05,
            250.08,
            248.14,
            246.21,
            244.31,
            242.43,
            240.58,
            238.74,
            236.93,
            235.13,
            233.36,
            231.6,
            229.87,
            228.15,
            226.46,
            224.78,
            223.12,
            221.48,
            219.86,
            218.26,
            216.67,
            215.1,
            213.55,
            212.01,
            210.49,
            208.99,
            207.5,
            206.03,
            204.58,
            203.14,
            201.71,
            200.3,
            198.91,
            197.52,
            196.16,
            194.81,
            193.47,
            192.14,
            190.83,
            189.53,
            188.25,
            186.98,
            185.72,
            184.47,
            183.24,
            182.02,
            180.81,
            179.61,
            178.43,
            177.25,
            176.09,
            174.94,
            173.8,
            172.67,
            171.56,
            170.45,
            169.35,
            168.27,
            167.19,
            166.13,
            165.07,
            164.03,
            163.0,
            161.97,
            160.96,
            159.95,
            158.95,
            157.97,
            156.99,
            156.02,
            155.06,
            154.11,
            153.17,
            152.23,
            151.31,
            150.39,
            149.48,
            148.58,
            147.69,
            146.81,
            145.93,
            145.06,
            144.2,
            143.35,
            142.5,
            141.66,
            140.83,
            140.01,
            139.19,
            138.38,
            137.58,
            136.79,
            136.0,
            135.22,
            134.44,
            133.68,
            132.91,
            132.16,
            131.41,
            130.67,
            129.93,
            129.2,
            128.48,
            127.76,
            127.05,
            126.34,
            125.64,
            124.95,
            124.26,
            123.58,
            122.9,
            122.23,
            121.56,
            120.9,
            120.25,
            119.6,
            118.95,
            118.32,
            117.68,
            117.05,
            116.43,
            115.81,
            115.19,
            114.59,
            113.98,
            113.38,
            112.79,
            112.2,
            111.61,
            111.03,
            110.45,
            109.88,
            109.31,
            108.75,
            108.19,
            107.63,
            107.08,
            106.54,
            106.0,
            105.46,
            104.92,
            104.39,
            103.87,
            103.31,
            102.37,
            101.35,
            100.35,
            99.36,
            98.387,
            97.428,
            96.483,
            95.552,
            94.635,
            93.73,
            92.838,
            91.959,
            91.093,
            90.239,
            89.396,
            88.566,
            87.746,
            86.939,
            86.142,
            85.356,
            84.581,
            83.816,
            83.062,
            82.318,
            81.584,
            80.859,
            80.145,
            79.439,
            78.743,
            78.056,
            77.378,
            76.709,
            76.048,
            75.396,
            74.753,
            74.117,
            73.49,
            72.87,
            72.258,
            71.654,
            71.058,
            70.469,
            69.887,
            69.312,
            68.745,
            68.184,
            67.63,
            67.083,
            66.543,
            66.009,
            65.481,
            64.96,
            64.445,
            63.936,
            63.433,
            62.936,
            62.445,
            61.959,
            61.479,
            61.005,
            60.536,
            60.073,
            59.615,
            59.162,
            58.714,
            58.271,
            57.834,
            57.401,
            56.973,
            56.55,
            56.131,
            55.717,
            55.308,
            54.903,
            54.503,
            54.107,
            53.715,
            53.327,
            52.944,
            52.565,
            52.19,
            51.819,
            51.451,
            51.088,
            50.729,
            50.373,
            50.021,
            49.673,
            49.328,
            48.987,
            48.649,
            48.315,
            47.985,
            47.657,
            47.334,
            47.013,
            46.696,
            46.381,
            46.07,
            45.762,
            45.458,
            45.156,
            44.857,
            44.561,
            44.268,
            43.978,
            43.691,
            43.407,
            43.125,
            42.846,
            42.57,
            42.296,
            42.025,
            41.757,
            41.491,
            41.228,
            40.967,
            40.709,
            40.453,
            40.2,
            39.949,
            39.7,
            39.454,
            39.209,
            38.968,
            38.728,
            38.491,
            38.255,
            38.022,
            37.791,
            37.562,
            37.336,
            37.111,
            36.888,
            36.667,
            36.449,
            36.232,
            36.017,
            35.804,
            35.593,
            35.384,
            35.176,
            34.971,
            34.767,
            34.565,
            34.365,
            34.166,
            33.97,
            33.774,
            33.581,
            33.389,
            33.199,
            33.011,
            32.824,
            32.638,
            32.455,
            32.272,
            32.092,
            31.913,
            31.735,
            31.559,
            31.384,
            31.211,
            31.039,
            30.869,
            30.699,
            30.532,
            30.366,
            30.201,
            30.037,
            29.875,
            29.714,
            29.554,
            29.396,
            29.239,
            29.083,
            28.928,
            28.775,
            28.623,
            28.472,
            28.322,
            28.174,
            28.026,
            27.88,
            27.735,
            27.591,
            27.448,
            27.306,
            27.165,
            27.026,
            26.887,
            26.75,
            26.614,
            26.478,
            26.344,
            26.211,
            26.078,
            25.947,
            25.817,
            25.677,
            25.444,
            25.192,
            24.944,
            24.699,
            24.458,
            24.22,
            23.986,
            23.755,
            23.528,
            23.303,
            23.082,
            22.864,
            22.65,
            22.438,
            22.229,
            22.023,
            21.82,
            21.619,
            21.422,
            21.227,
            21.035,
            20.845,
            20.658,
            20.473,
            20.291,
            20.111,
            19.934,
            19.759,
            19.586,
            19.416,
            19.248,
            19.082,
            18.918,
            18.756,
            18.596,
            18.438,
            18.283,
            18.129,
            17.977,
            17.827,
            17.679,
            17.533,
            17.389,
            17.246,
            17.105,
            16.966,
            16.828,
            16.693,
            16.558,
            16.426,
            16.295,
            16.165,
            16.038,
            15.911,
            15.786,
            15.663,
            15.541,
            15.42,
            15.301,
            15.183,
            15.067,
            14.952,
            14.838,
            14.726,
            14.614,
            14.504,
            14.396,
            14.288,
            14.182,
            14.077,
            13.973,
            13.87,
            13.768,
            13.668,
            13.568,
            13.47,
            13.373,
            13.276,
            13.181,
            13.087,
            12.994,
            12.902,
            12.81,
            12.72,
            12.631,
            12.542,
            12.455,
            12.368,
            12.283,
            12.198,
            12.114,
            12.031,
            11.949,
            11.868,
            11.787,
            11.707,
            11.628,
            11.55,
            11.473,
            11.397,
            11.321,
            11.246,
            11.171,
            11.098,
            11.025,
            10.953,
            10.882,
            10.811,
            10.741,
            10.672,
            10.603,
            10.535,
            10.468,
            10.401,
            10.335,
            10.269,
            10.204,
            10.14,
            10.077,
            10.014,
            9.9512,
            9.8894,
            9.8281,
            9.7674,
            9.7072,
            9.6477,
            9.5886,
            9.5301,
            9.4722,
            9.4147,
            9.3578,
            9.3014,
            9.2455,
            9.1901,
            9.1352,
            9.0808,
            9.0269,
            8.9735,
            8.9205,
            8.868,
            8.8159,
            8.7644,
            8.7132,
            8.6625,
            8.6123,
            8.5625,
            8.5131,
            8.4642,
            8.4156,
            8.3637,
            8.2773,
            8.1838,
            8.0919,
            8.0016,
            7.9127,
            7.8253,
            7.7394,
            7.6549,
            7.5717,
            7.4899,
            7.4094,
            7.3302,
            7.2523,
            7.1756,
            7.1001,
            7.0258,
            6.9526,
            6.8806,
            6.8097,
            6.7399,
            6.6712,
            6.6035,
            6.5369,
            6.4712,
            6.4065,
            6.3428,
            6.28,
            6.2182,
            6.1573,
            6.0972,
            6.0381,
            5.9798,
            5.9223,
            5.8657,
            5.8098,
            5.7548,
            5.7005,
            5.647,
            5.5943,
            5.5423,
            5.491,
            5.4404,
            5.3905,
            5.3413,
            5.2928,
            5.2449,
            5.1977,
            5.1511,
            5.1051,
            5.0597,
            5.015,
            4.9708,
            4.9272,
            4.8842,
            4.8418,
            4.7999,
            4.7585,
            4.7177,
            4.6774,
            4.6376,
            4.5983,
            4.5595,
            4.5212,
            4.4834,
            4.4461,
            4.4092,
            4.3728,
            4.3368,
            4.3013,
            4.2662,
            4.2315,
            4.1973,
            4.1634,
            4.13,
            4.097,
            4.0643,
            4.0321,
            4.0002,
            3.9688,
            3.9376,
            3.9069,
            3.8765,
            3.8465,
            3.8168,
            3.7874,
            3.7584,
            3.7297,
            3.7014,
            3.6734,
            3.6456,
            3.6182,
            3.5912,
            3.5644,
            3.5379,
            3.5117,
            3.4858,
            3.4602,
            3.4348,
            3.4098,
            3.383,
            3.3386,
            3.2909,
            3.2441,
            3.1983,
            3.1535,
            3.1096,
            3.0667,
            3.0246,
            2.9834,
            2.943,
            2.9034,
            2.8647,
            2.8267,
            2.7894,
            2.7529,
            2.7171,
            2.682,
            2.6475,
            2.6137,
            2.5806,
            2.5481,
            2.5162,
            2.4849,
            2.4542,
            2.424,
            2.3944,
            2.3653,
            2.3368,
            2.3088,
            2.2812,
            2.2542,
            2.2277,
            2.2016,
            2.1759,
            2.1507,
            2.126,
            2.1016,
            2.0777,
            2.0542,
            2.0311,
            2.0084,
            1.986,
            1.9641,
            1.9424,
            1.9212,
            1.9003,
            1.8797,
            1.8595,
            1.8396,
            1.82,
            1.8007,
            1.7817,
            1.763,
            1.7446,
            1.7265,
            1.7087,
            1.6912,
            1.6739,
            1.6569,
            1.6401,
            1.6236,
            1.6074,
            1.5913,
            1.5756,
            1.56,
            1.5447,
            1.5296,
            1.5148,
            1.5001,
            1.4857,
            1.4714,
            1.4574,
            1.4436,
            1.4299,
            1.4165,
            1.4032,
            1.3902,
            1.3773,
            1.3646,
            1.352,
            1.3397,
            1.3275,
            1.3155,
            1.3036,
            1.2919,
            1.2803,
            1.269,
            1.2577,
            1.2466,
            1.2357,
            1.2249,
            1.2142,
            1.2037,
            1.1933,
            1.183,
            1.1729,
            1.1629,
            1.1531,
            1.1433,
            1.1329,
            1.1158,
            1.0973,
            1.0794,
            1.0618,
            1.0447,
            1.028,
            1.0117,
            0.99577,
            0.98023,
            0.96504,
            0.9502,
            0.9357,
            0.92153,
            0.90768,
            0.89414,
            0.8809,
            0.86796,
            0.85529,
            0.8429,
            0.83078,
            0.81892,
            0.80731,
            0.79595,
            0.78482,
            0.77393,
            0.76326,
            0.75281,
            0.74257,
            0.73254,
            0.72271,
            0.71308,
            0.70364,
            0.69439,
            0.68532,
            0.67642,
            0.6677,
            0.65914,
            0.65075,
            0.64252,
            0.63444,
            0.62651,
            0.61873,
            0.6111,
            0.6036,
            0.59625,
            0.58902,
            0.58193,
            0.57496,
            0.56812,
            0.5614,
            0.5548,
            0.54831,
            0.54194,
            0.53568,
            0.52952,
            0.52347,
            0.51753,
            0.51168,
            0.50594,
            0.50029,
            0.49473,
            0.48926,
            0.48389,
            0.4786,
            0.4734,
            0.46829,
            0.46326,
            0.4583,
            0.45343,
            0.44863,
            0.44391,
            0.43927,
            0.43469,
            0.43019,
            0.42576,
            0.42139,
            0.41709,
            0.41286,
            0.40869,
            0.40459,
            0.40054,
            0.39656,
            0.39263,
            0.38877,
            0.38496,
            0.3812,
            0.3775,
            0.37386,
            0.37026,
            0.36672,
            0.36323,
            0.35979,
            0.3564,
            0.35305,
            0.34975,
            0.3465,
            0.34329,
            0.34013,
            0.33701,
            0.33393,
            0.3309,
            0.32865
          ],
          [
            3.2798,
            17.227,
            12.276,
            10.677,
            1.7481,
            15.574,
            9.07,
            12.171,
            -5.8517,
            -6.3369,
            3.8151,
            6.7864,
            1.0223,
            5.7131,
            8.7408,
            7.2411,
            11.553,
            19.73,
            -1.7256,
            -0.34284,
            14.084,
            14.299,
            16.072,
            14.658,
            0.95835,
            18.804,
            16.444,
            13.023,
            8.9013,
            16.652,
            25.344,
            5.8682,
            24.346,
            6.3238,
            5.8462,
            15.038,
            19.692,
            9.0578,
            -0.52169,
            5.5022,
            -2.7957,
            12.382,
            5.7725,
            18.429,
            9.9557,
            4.3726,
            4.1391,
            32.762,
            45.503,
            15.569,
            5.4694,
            19.06,
            -35.48,
            24.636,
            -11.812,
            66.786,
            -0.78061,
            -31.725,
            36.53,
            17.112,
            36.565,
            -18.616,
            34.316,
            47.121,
            21.123,
            10.405,
            -12.135,
            -36.066,
            28.843,
            17.935,
            -9.4028,
            72.768,
            -5.0451,
            -2.7132,
            92.562,
            13.155,
            97.665,
            27.763,
            37.69,
            116.27,
            53.493,
            102.69,
            90.691,
            35.115,
            63.869,
            63.781,
            11.333,
            -0.65691,
            37.592,
            65.919,
            -6.0878,
            5.5333,
            34.514,
            -6.7162,
            -1.4678,
            76.828,
            67.44,
            67.022,
            42.523,
            2.8501,
            77.384,
            91.822,
            -2.8402,
            10.104,
            15.324,
            1.0761,
            -14.18,
            11.903,
            2.3587,
            44.254,
            0.41949,
            -70.768,
            27.784,
            -25.242,
            19.933,
            35.155,
            3.3405,
            -16.311,
            27.195,
            0.91922,
            -6.5083,
            20.77,
            34.05,
            -37.305,
            -18.552,
            20.668,
            66.829,
            52.289,
            17.375,
            -18.04,
            90.891,
            79.284,
            -15.66,
            -1.4008,
            2.9279,
            6.6766,
            -2.5333,
            7.6126,
            -6.8321,
            31.914,
            9.3681,
            11.908,
            3.0983,
            23.455,
            43.845,
            22.767,
            13.26,
            11.238,
            -0.74918,
            18.691,
            5.4848,
            -1.5339,
            1.5459,
            33.589,
            9.3246,
            4.0399,
            50.081,
            14.144,
            10.06,
            -2.0812,
            9.9075,
            8.2252,
            19.857,
            2.4563,
            8.0982,
            11.686,
            48.402,
            -33.277,
            -30.544,
            74.341,
            14.939,
            69.002,
            43.772,
            -21.892,
            18.147,
            3.3558,
            -20.441,
            -8.9475,
            28.1,
            -48.065,
            14.413,
            -22.622,
            6.6765,
            -12.391,
            70.863,
            77.429,
            27.391,
            75.825,
            9.039,
            41.009,
            32.859,
            -20.687,
            15.795,
            -13.145,
            30.116,
            37.482,
            69.76,
            -11.767,
            76.072,
            -15.13,
            36.471,
            4.1753,
            22.828,
            107.31,
            33.984,
            132.48,
            121.95,
            82.392,
            -33.654,
            111.47,
            -16.309,
            90.213,
            118.9,
            86.896,
            123.42,
            15.627,
            138.38,
            60.571,
            88.932,
            97.892,
            35.742,
            94.214,
            59.418,
            37.231,
            18.965,
            -14.296,
            64.128,
            21.352,
            28.81,
            34.871,
            -8.9693,
            107.08,
            0.86487,
            -14.287,
            4.1582,
            -61.192,
            -34.0,
            -23.888,
            72.737,
            -12.244,
            -18.891,
            -27.421,
            36.375,
            12.669,
            49.084,
            -16.551,
            70.527,
            -49.812,
            20.302,
            -96.744,
            8.3852,
            -28.376,
            29.506,
            79.489,
            27.371,
            70.067,
            15.984,
            -11.287,
            21.077,
            4.6478,
            11.346,
            4.4477,
            22.635,
            34.68,
            20.351,
            4.2806,
            29.784,
            18.525,
            14.908,
            -0.84332,
            34.58,
            118.5,
            96.16,
            80.788,
            -0.032299,
            -0.83162,
            89.274,
            15.156,
            -67.702,
            19.568,
            -38.231,
            -3.7052,
            8.5603,
            -24.899,
            37.128,
            51.421,
            44.421,
            91.062,
            75.245,
            46.588,
            58.215,
            51.27,
            17.447,
            1.3515,
            53.791,
            22.799,
            86.659,
            37.21,
            41.401,
            65.389,
            4.2548,
            -8.8407,
            37.785,
            40.438,
            97.97,
            75.275,
            65.896,
            100.4,
            71.517,
            15.517,
            60.183,
            44.56,
            -11.584,
            17.205,
            -2.7459,
            32.544,
            -26.637,
            18.201,
            -23.726,
            55.1,
            6.6201,
            3.7327,
            9.4184,
            28.743,
            64.54,
            41.678,
            71.141,
            55.788,
            157.89,
            21.778,
            41.585,
            -12.204,
            20.826,
            76.527,
            92.648,
            6.1493,
            5.2868,
            20.881,
            37.24,
            81.227,
            142.94,
            104.12,
            27.953,
            62.903,
            37.32,
            76.482,
            69.645,
            90.973,
            82.488,
            115.42,
            136.23,
            153.64,
            74.078,
            65.169,
            117.99,
            67.193,
            94.937,
            160.27,
            90.425,
            143.06,
            103.39,
            147.38,
            159.27,
            157.24,
            263.27,
            138.46,
            89.15,
            153.92,
            158.91,
            173.53,
            165.97,
            200.62,
            199.56,
            226.22,
            154.43,
            191.71,
            183.64,
            232.04,
            288.18,
            189.9,
            192.8,
            154.06,
            212.7,
            218.61,
            165.93,
            227.02,
            216.11,
            200.48,
            208.78,
            205.49,
            172.53,
            157.1,
            111.23,
            72.419,
            116.65,
            139.21,
            94.032,
            149.36,
            53.042,
            162.25,
            209.94,
            210.02,
            191.6,
            84.308,
            105.48,
            92.595,
            141.95,
            130.57,
            61.74,
            171.44,
            90.083,
            109.18,
            100.41,
            91.677,
            9.6184,
            76.009,
            -26.871,
            46.08,
            47.719,
            94.002,
            101.42,
            122.2,
            108.67,
            8.0042,
            69.78,
            38.444,
            45.339,
            7.1811,
            60.332,
            55.128,
            -7.391,
            6.4946,
            -34.842,
            54.186,
            50.02,
            6.0345,
            35.399,
            25.866,
            50.37,
            2.0759,
            28.181,
            23.315,
            42.626,
            42.889,
            9.6014,
            71.635,
            10.789,
            30.298,
            71.171,
            73.268,
            26.804,
            60.948,
            -42.905,
            59.144,
            6.8143,
            -48.27,
            29.882,
            -17.998,
            9.0575,
            -10.36,
            -72.548,
            24.93,
            20.165,
            -19.964,
            -37.289,
            14.598,
            78.485,
            36.72,
            98.439,
            175.56,
            69.47,
            53.704,
            -7.14,
            111.98,
            -57.954,
            35.47,
            20.765,
            15.696,
            -26.683,
            38.395,
            16.973,
            79.342,
            49.513,
            31.419,
            37.912,
            99.888,
            23.362,
            9.3686,
            -20.757,
            74.549,
            -44.987,
            -28.004,
            -8.9514,
            25.791,
            3.4831,
            -5.4042,
            -0.49242,
            7.3386,
            21.648,
            32.775,
            12.314,
            26.276,
            22.619,
            25.055,
            27.134,
            7.1909,
            25.422,
            -25.509,
            9.5811,
            -19.851,
            26.741,
            37.898,
            18.127,
            55.669,
            30.571,
            28.819,
            41.137,
            14.139,
            28.831,
            36.074,
            26.878,
            55.176,
            44.757,
            -4.0587,
            41.485,
            -5.1764,
            53.906,
            86.704,
            82.748,
            70.066,
            90.093,
            72.725,
            98.539,
            164.12,
            142.22,
            142.91,
            134.61,
            205.13,
            195.12,
            191.89,
            156.43,
            185.98,
            147.71,
            107.5,
            98.803,
            97.867,
            110.39,
            81.653,
            108.0,
            61.914,
            60.928,
            62.332,
            63.35,
            66.097,
            11.032,
            4.0527,
            7.6023,
            4.4915,
            10.5,
            43.056,
            -25.62,
            19.6,
            -2.3681,
            80.098,
            -26.444,
            94.849,
            20.138,
            41.087,
            115.18,
            85.428,
            111.17,
            1.2327,
            75.346,
            11.324,
            32.442,
            36.586,
            -0.75819,
            55.385,
            1.8786,
            2.0591,
            -49.817,
            108.63,
            34.2,
            -39.075,
            12.164,
            12.52,
            1.838,
            19.774,
            -7.0538,
            13.559,
            26.925,
            -3.0839,
            10.721,
            -5.1212,
            -2.7907,
            16.961,
            11.749,
            10.179,
            5.9977,
            15.83,
            -48.905,
            30.258,
            92.197,
            60.907,
            60.807,
            -2.0615,
            -40.069,
            -12.015,
            -52.303,
            85.461,
            59.522,
            91.576,
            -10.301,
            -4.6579,
            -10.397,
            32.057,
            21.492,
            72.576,
            13.062,
            72.134,
            -31.808,
            45.339,
            113.23,
            108.67,
            80.23,
            139.98,
            209.48,
            84.568,
            222.91,
            274.96,
            286.99,
            153.21,
            234.09,
            171.81,
            170.06,
            103.57,
            173.4,
            122.9,
            38.846,
            104.7,
            -15.108,
            28.436,
            106.37,
            57.096,
            -7.3244,
            78.518,
            -55.838,
            38.015,
            11.506,
            -43.338,
            13.651,
            53.803,
            23.072,
            -106.16,
            -33.021,
            35.794,
            29.46,
            15.32,
            36.517,
            42.404,
            -8.3425,
            58.415,
            96.132,
            52.521,
            108.85,
            1.779,
            31.291,
            33.023,
            -10.531,
            0.92365,
            69.545,
            -13.85,
            -13.907,
            3.637,
            9.3645,
            21.34,
            -16.548,
            -1.2033,
            7.5922,
            -0.14652,
            16.121,
            11.483,
            -12.076,
            0.49934,
            -14.083,
            17.706,
            -7.2685,
            -2.1328,
            12.867,
            28.585,
            11.233,
            14.995,
            37.048,
            5.7069,
            19.787,
            26.731,
            -31.517,
            -11.35,
            3.4038,
            -16.046,
            5.3721,
            11.723,
            -12.792,
            -31.818,
            -18.637,
            -10.588,
            -2.8834,
            -7.0762,
            2.4042,
            -34.238,
            -31.889,
            7.1982,
            5.1749,
            -14.329,
            24.678,
            -12.927,
            0.39229,
            -0.71151,
            0.14889,
            -27.157,
            -3.4601,
            -18.012,
            -4.8329,
            14.599,
            -21.862,
            2.2323,
            3.1923,
            21.052,
            -4.4714,
            20.721,
            -34.981,
            5.503,
            -2.1074,
            -8.4245,
            6.0945,
            -10.282,
            -12.501,
            8.8144,
            -15.488,
            -4.7577,
            5.6155,
            5.0336,
            -39.897,
            -57.837,
            -44.054,
            -38.311,
            -47.122,
            -75.274,
            -87.998,
            -36.468,
            -31.33,
            -27.337,
            -37.875,
            -18.701,
            -29.432,
            -5.4462,
            45.353,
            -29.78,
            15.649,
            17.338,
            24.048,
            89.629,
            54.011,
            2.5669,
            -27.574,
            -14.446,
            145.27,
            90.032,
            45.307,
            -69.524,
            17.467,
            -55.845,
            -142.9,
            -47.432,
            -20.264,
            16.842,
            -87.8,
            -1.3728,
            -50.889,
            -4.1473,
            -6.3009,
            -1.9247,
            13.105,
            15.58,
            -21.435,
            4.4441,
            13.406,
            3.7354,
            3.6051,
            40.102,
            19.111,
            20.225,
            7.9315,
            23.776,
            18.141,
            24.935,
            -12.831,
            25.553,
            23.866,
            0.86752,
            7.4816,
            7.9875,
            12.798,
            23.571,
            30.624,
            16.034,
            8.4714,
            8.3425,
            15.17,
            26.513,
            31.583,
            1.7983,
            19.171,
            -9.831,
            0.66126,
            6.1104,
            23.024,
            18.001,
            25.557,
            -12.515,
            4.077,
            21.955,
            9.4531,
            -1.1837,
            7.7058,
            -0.72782,
            3.0315,
            7.085,
            28.453,
            37.464,
            8.5249,
            13.926,
            2.8805,
            6.8453,
            26.884,
            5.6819,
            -11.233,
            20.841,
            31.041,
            0.88857,
            14.883,
            0.2747,
            15.108,
            4.5272,
            22.394,
            25.255,
            12.974,
            -4.857,
            9.462,
            15.78,
            21.299,
            -13.938,
            1.1168,
            19.26,
            14.941,
            5.3133,
            36.557,
            -28.182,
            -26.999,
            0.13604,
            -34.782,
            7.839,
            -58.241,
            -25.426,
            -57.269,
            -44.218,
            -40.319,
            -33.739,
            4.9446,
            37.679,
            14.158,
            2.2317,
            -21.3,
            -30.437,
            -16.736,
            13.809,
            25.37,
            12.041,
            13.881,
            29.178,
            25.232,
            19.631,
            0.88175,
            0.33248,
            5.2369,
            15.218,
            10.675,
            20.354,
            22.708,
            7.4199,
            0.08495,
            8.4661,
            6.1792,
            14.137,
            17.953,
            15.482,
            -3.0705,
            4.3097,
            6.1056,
            40.113,
            0.46849,
            9.1713,
            30.924,
            14.029,
            13.154,
            -0.96813,
            18.694,
            14.401,
            27.272,
            6.8439,
            -8.4581,
            10.171,
            18.135,
            18.899,
            22.391,
            11.489,
            33.901,
            18.79,
            19.926,
            6.04,
            3.5119,
            22.739,
            27.89,
            15.543,
            -10.656,
            14.048,
            12.57,
            35.629,
            16.194,
            18.968,
            15.144,
            -5.785,
            10.618,
            23.035,
            12.232,
            23.295,
            19.661,
            4.7935,
            -1.7488,
            0.74514,
            17.45,
            20.061,
            8.9042,
            -23.555,
            8.1374,
            -9.3716,
            7.2181,
            2.0464,
            11.996,
            19.088,
            -4.5691,
            27.706,
            12.627,
            18.284,
            7.47,
            -2.659,
            19.635,
            0.41071,
            -3.4886,
            -0.27909,
            -6.78,
            16.309,
            -1.0679,
            -23.023,
            2.9756,
            94.052,
            20.054,
            -37.181,
            -30.422,
            13.455,
            36.597,
            17.599,
            -47.409,
            2.0729,
            29.799,
            42.961,
            -94.795,
            -93.835,
            -148.58,
            -57.243,
            -138.76,
            -115.99,
            -126.65,
            -93.977,
            -106.94,
            -57.394,
            -87.087,
            -27.585,
            -12.771,
            0.29013,
            56.769,
            -68.171,
            -27.405,
            0.010385,
            63.147,
            9.9495,
            -86.724,
            -55.671,
            8.5751,
            -66.335,
            -1.8873,
            67.361,
            49.434,
            52.604,
            18.955,
            6.1799,
            6.6399,
            13.713,
            8.0779,
            5.9181,
            27.869,
            23.499,
            15.432,
            10.198,
            7.7198,
            2.5227,
            11.096,
            22.241,
            15.651,
            31.674,
            -1.1983,
            25.21,
            10.969,
            20.195,
            -2.9711,
            9.3109,
            19.134,
            -4.4275,
            8.311,
            26.866,
            11.866,
            6.817,
            2.6985,
            19.158,
            6.8544,
            14.628,
            3.6941,
            5.6152,
            -27.961,
            8.6034,
            8.1719,
            17.191,
            12.388,
            24.73,
            14.862,
            -0.84165,
            26.563,
            -4.9538,
            29.467,
            13.072,
            18.491,
            31.286,
            2.9821,
            21.103,
            10.639,
            17.414,
            22.928,
            5.3461,
            7.261,
            10.013,
            -5.761,
            13.958,
            8.2983,
            6.5454,
            17.818,
            8.2615,
            27.785,
            -3.7997,
            16.614,
            14.102,
            -2.3557,
            5.6913,
            14.523,
            24.587,
            -1.8517,
            6.9135,
            -3.7719,
            -20.187,
            12.96,
            1.2538,
            -8.2987,
            -2.2639,
            -12.721,
            -26.504,
            -20.905,
            -51.433,
            -26.175,
            -60.039,
            -68.02,
            -69.021,
            -59.733,
            -82.397,
            -58.229,
            -35.85,
            -49.571,
            -44.832,
            -46.909,
            -47.791,
            -1.2891,
            -22.98,
            -23.595,
            -17.216,
            1.1605,
            -4.3312,
            -0.41973,
            -4.6116,
            3.2815,
            2.4659,
            -20.135,
            6.3415,
            15.255,
            -21.957,
            29.806,
            28.243,
            -3.613,
            0.46967,
            22.137,
            16.829,
            65.385,
            36.076,
            55.417,
            49.821,
            9.6115,
            73.67,
            77.274,
            4.2207,
            15.996,
            34.969,
            23.206,
            15.484,
            33.027,
            2.7111,
            -7.7264,
            12.945,
            -28.889,
            -24.525,
            13.563,
            13.897,
            18.484,
            26.644,
            33.71,
            13.224,
            48.58,
            48.86,
            39.846,
            21.713,
            30.933,
            51.708,
            53.247,
            31.472,
            57.059,
            58.687,
            60.858,
            50.014,
            52.241,
            73.788,
            78.732,
            54.974,
            66.716,
            89.669,
            97.8,
            83.049,
            96.35,
            111.22,
            133.7,
            137.93,
            152.9,
            167.22,
            190.75,
            185.29,
            215.7,
            248.61,
            274.89,
            295.85,
            351.0,
            431.33,
            493.96,
            588.15,
            683.49,
            847.25,
            996.04,
            1228.2,
            1523.6,
            1858.1,
            2281.8,
            2636.2,
            2855.4,
            2817.0,
            2605.8,
            2322.0,
            1914.6,
            1555.8,
            1283.2,
            1057.0,
            893.79,
            740.22,
            613.36,
            543.79,
            467.91,
            393.75,
            355.51,
            287.23,
            289.5,
            241.18,
            227.68,
            192.72,
            183.64,
            199.61,
            163.5,
            144.9,
            140.0,
            131.4,
            114.08,
            120.89,
            98.448,
            105.25,
            104.98,
            91.964,
            54.998,
            85.712,
            73.062,
            73.063,
            66.387,
            64.985,
            63.91,
            70.716,
            67.604,
            50.298,
            52.02,
            55.482,
            35.732,
            70.455,
            48.247,
            43.476,
            56.93,
            41.629,
            53.263,
            42.316,
            43.189,
            52.474,
            39.706,
            31.676,
            20.666,
            33.53,
            39.104,
            38.772,
            34.31,
            20.355,
            29.272,
            36.567,
            34.918,
            27.243,
            4.9806,
            34.039,
            18.568,
            32.965,
            47.603,
            24.679,
            22.835,
            21.868,
            43.255,
            19.976,
            28.31,
            34.675,
            24.764,
            30.472,
            20.303,
            23.083,
            38.402,
            36.328,
            31.698,
            43.222,
            -8.7511,
            31.752,
            42.883,
            20.585,
            13.192,
            34.191,
            9.4094,
            23.83,
            2.2569,
            18.349,
            9.7734,
            22.051,
            18.144,
            13.067,
            9.1464,
            6.489,
            19.758,
            20.434,
            12.282,
            19.302,
            32.296,
            9.23,
            20.889,
            17.146,
            35.3,
            28.996,
            28.163,
            25.098,
            25.224,
            32.943,
            6.7134,
            19.734,
            18.933,
            23.191,
            28.422,
            19.8,
            26.014,
            18.452,
            1.4679,
            20.039,
            22.272,
            7.1934,
            20.2,
            -2.9683,
            48.151,
            26.588,
            18.388,
            10.972,
            -0.36114,
            10.541,
            20.984,
            8.7633,
            38.552,
            24.561,
            26.113,
            14.291,
            18.745,
            6.6858,
            13.08,
            12.873,
            11.899,
            25.867,
            15.345,
            22.607,
            -7.5421,
            2.3498,
            17.935,
            21.047,
            20.436,
            13.989,
            12.512,
            26.29,
            -5.6483,
            10.776,
            10.119,
            12.608,
            34.111,
            20.934,
            16.922,
            3.0175,
            12.676,
            19.324,
            21.864,
            16.908,
            18.018,
            25.144,
            28.483,
            6.2639,
            22.385,
            24.632,
            11.786,
            9.8777,
            17.616,
            8.5424,
            9.232,
            19.558,
            0.20993,
            -2.6388,
            13.731,
            12.311,
            15.708,
            -1.2186,
            15.298,
            16.568,
            23.039,
            9.7044,
            17.218,
            13.026,
            7.1685,
            13.335,
            11.324,
            20.058,
            15.007,
            7.8045,
            21.824,
            12.009,
            7.074,
            13.236,
            9.1866,
            9.9531,
            14.697,
            22.417,
            18.07,
            5.596,
            6.2013,
            -4.3304,
            17.592,
            6.704,
            12.046,
            3.148,
            16.413,
            17.248,
            25.149,
            6.2908,
            1.9857,
            21.247,
            9.0425,
            0.93803,
            1.2088,
            22.922,
            -0.17911,
            -6.0834,
            20.892,
            -1.4275,
            29.444,
            14.014,
            24.675,
            12.781,
            13.562,
            9.8942,
            6.8477,
            15.476,
            5.4298,
            22.333,
            16.351,
            25.856,
            -1.1225,
            1.511,
            15.442,
            -2.3116,
            6.0715,
            7.5683,
            9.4677,
            -4.9213,
            -6.9733,
            13.076,
            16.111,
            13.92,
            15.402,
            8.4511,
            22.492,
            3.8771,
            12.629,
            20.529,
            13.139,
            9.0051,
            18.738,
            2.934,
            14.472,
            29.427,
            10.669,
            11.368,
            29.117,
            14.89,
            24.344,
            12.038,
            19.287,
            4.2501,
            7.0565,
            14.834,
            3.0062,
            17.053,
            4.5594,
            11.088,
            27.404,
            8.4842,
            22.932,
            8.5257,
            9.1533,
            22.231,
            32.324,
            17.499,
            11.718,
            16.948,
            9.201,
            9.6534,
            5.6961,
            19.756,
            12.317,
            17.717,
            -0.59912,
            27.657,
            1.8058,
            16.455,
            13.427,
            19.101,
            17.567,
            0.89881,
            7.4464,
            8.5611,
            -22.641,
            18.596,
            4.8263,
            20.77,
            19.405,
            13.541,
            -9.6168,
            34.203,
            -1.8485,
            4.1942,
            13.892,
            4.1858,
            15.155,
            13.314,
            10.417,
            3.9036,
            7.52,
            12.616,
            14.024,
            22.075,
            13.805,
            14.926,
            10.533,
            12.002,
            13.15,
            16.672,
            19.816,
            16.251,
            0.25699,
            5.7547,
            8.6974,
            19.998,
            10.617,
            -0.35396,
            6.6458,
            13.797,
            8.6609,
            14.4,
            27.133,
            22.581,
            26.871,
            0.19971,
            22.177,
            35.96,
            21.939,
            19.081,
            7.1084,
            7.2716,
            14.699,
            21.061,
            4.4816,
            5.7856,
            14.67,
            20.844,
            11.124,
            7.9506,
            21.027,
            16.406,
            -3.4991,
            1.6393,
            6.666,
            13.413,
            16.087,
            -0.74748,
            7.2602,
            15.412,
            9.4063,
            17.692,
            18.994,
            2.2989,
            15.999,
            5.518,
            7.4255,
            2.5008,
            10.53,
            5.854,
            22.34,
            2.7162,
            12.488,
            2.6647,
            16.436,
            19.087,
            8.2089,
            16.321,
            6.4764,
            1.2879,
            14.594,
            15.59,
            13.914,
            9.1586,
            17.021,
            13.311,
            2.796,
            9.6629,
            27.1,
            11.794,
            -1.2577,
            14.835,
            24.038,
            23.875,
            6.9518,
            25.597,
            12.504,
            17.084,
            18.421,
            18.414,
            18.036,
            11.862,
            12.498,
            9.2617,
            6.7199,
            10.04,
            14.098,
            0.70306,
            19.085,
            26.011,
            15.327,
            24.07,
            11.478,
            5.0527,
            19.721,
            19.076,
            14.332,
            6.8803,
            13.615,
            30.097,
            20.872,
            17.308,
            11.403,
            20.012,
            18.276,
            27.013,
            4.2986,
            17.302,
            13.411,
            17.008,
            7.7069,
            -1.9048,
            18.383,
            18.663,
            8.7207,
            21.675,
            -0.72808,
            20.585,
            11.613,
            17.87,
            8.998,
            4.6866,
            5.2649,
            -1.2193,
            7.5386,
            11.004,
            -3.2057,
            6.5298,
            14.458,
            12.192,
            27.682,
            19.743,
            16.767,
            7.7794,
            20.714,
            13.058,
            10.937,
            12.626,
            17.699,
            19.907,
            7.3515,
            12.562,
            -3.5854,
            14.374,
            13.691,
            9.5255,
            7.9638,
            5.1329,
            15.04,
            13.09,
            6.025,
            11.056,
            1.7216,
            10.407,
            15.778,
            8.6288,
            10.257,
            12.54,
            13.066,
            10.932,
            18.859,
            14.896,
            1.9647,
            0.6221,
            21.435,
            9.3853,
            11.481,
            15.416,
            23.821,
            20.745,
            -0.18526,
            9.4172,
            17.515,
            16.014,
            19.433,
            17.994,
            11.459,
            14.466,
            12.355,
            30.753,
            14.703,
            12.247,
            9.5275,
            6.1444,
            11.736,
            17.37,
            14.69,
            20.239,
            14.4,
            3.1851,
            16.169,
            10.44,
            13.617,
            16.698,
            29.898,
            8.7665,
            -2.0854,
            11.328,
            4.2321,
            15.503,
            7.3441,
            12.334,
            12.892,
            15.845,
            33.691,
            11.23,
            7.4181,
            22.008,
            1.1327,
            23.17,
            27.638,
            18.474,
            12.398,
            16.649,
            8.2868,
            20.032,
            34.903,
            25.319,
            13.386,
            18.426,
            12.863,
            19.812,
            17.623,
            5.1501,
            21.591,
            25.063,
            7.628,
            9.9887,
            19.114,
            26.442,
            -1.6412,
            19.147,
            19.88,
            18.678,
            14.979,
            9.5957,
            16.398,
            12.141,
            20.13,
            20.643,
            12.999,
            18.478,
            17.027,
            10.77,
            14.188,
            17.487,
            12.028,
            12.809,
            17.52,
            13.612,
            16.078,
            14.028,
            24.845,
            9.6203,
            16.708,
            4.2229,
            10.038,
            12.255,
            15.848,
            5.7815,
            13.25,
            15.836,
            23.957,
            8.4633,
            16.505,
            16.287,
            13.562,
            5.4686,
            13.932,
            15.738,
            26.341,
            24.079,
            18.862,
            19.028,
            18.578,
            29.259,
            9.0109,
            22.598,
            2.631,
            18.381,
            17.724,
            18.627,
            15.042,
            33.706,
            11.242,
            14.588,
            5.3058,
            27.362,
            29.015,
            18.061,
            18.918,
            24.534,
            16.296,
            21.462,
            20.524,
            20.011,
            17.865,
            16.76,
            21.419,
            14.949,
            18.684,
            18.21,
            16.665,
            19.774,
            25.973,
            28.193,
            16.851,
            16.186,
            3.5724,
            16.164,
            13.548,
            28.962,
            27.254,
            12.495,
            24.617,
            16.073,
            19.146,
            24.596,
            19.767,
            17.809,
            13.711,
            17.67,
            10.569,
            21.822,
            22.673,
            24.555,
            14.273,
            41.044,
            17.909,
            10.68,
            28.671,
            32.733,
            18.514,
            22.31,
            19.304,
            27.397,
            20.67,
            18.548,
            19.344,
            21.934,
            20.773,
            27.59,
            17.08,
            23.659,
            17.863,
            27.646,
            25.709,
            14.51,
            19.055,
            18.354,
            19.009,
            22.962,
            7.3626,
            13.574,
            21.774,
            23.558,
            13.1,
            18.832,
            9.5984,
            24.687,
            21.571,
            24.817,
            33.563,
            14.35,
            23.408,
            32.578,
            27.643,
            17.711,
            28.937,
            20.108,
            32.109,
            10.123,
            22.261,
            13.536,
            20.638,
            10.943,
            26.899,
            20.553,
            14.287,
            14.961,
            19.35,
            22.231,
            18.08,
            31.135,
            25.514,
            29.053,
            29.758,
            44.08,
            24.912,
            27.007,
            15.268,
            30.714,
            20.507,
            19.585,
            26.37,
            22.405,
            35.448,
            29.102,
            24.323,
            29.971,
            13.619,
            13.09,
            37.119,
            26.842,
            30.132,
            25.342,
            31.117,
            22.518,
            42.514,
            26.752,
            15.606,
            18.39,
            -0.4791,
            30.944,
            23.278,
            41.541,
            30.757,
            11.963,
            36.961,
            32.452,
            34.573,
            8.531,
            -1.4841,
            39.166,
            39.445,
            39.749,
            29.45,
            0.68222,
            21.333,
            52.717,
            24.058,
            72.531,
            60.036,
            57.388,
            24.75,
            -19.324
          ],
          [
            5.5684,
            5.8022,
            5.5774,
            6.2255,
            6.4325,
            6.4627,
            6.723,
            7.029,
            7.5313,
            7.6732,
            7.4072,
            7.9808,
            7.3499,
            7.4607,
            7.5649,
            7.5908,
            7.2479,
            7.0966,
            7.1377,
            7.793,
            7.9639,
            7.96,
            8.1025,
            8.1727,
            8.4182,
            8.7704,
            8.3457,
            8.4717,
            9.1094,
            9.8264,
            10.072,
            9.2044,
            8.7023,
            8.584,
            8.5348,
            8.6815,
            8.6245,
            8.6505,
            8.6559,
            8.68,
            8.9086,
            8.7458,
            8.7911,
            9.1889,
            34.316,
            34.444,
            34.607,
            34.867,
            34.207,
            34.057,
            34.444,
            34.464,
            34.637,
            33.97,
            34.166,
            34.619,
            34.284,
            34.506,
            34.557,
            34.127,
            34.644,
            34.301,
            34.497,
            34.736,
            34.705,
            34.396,
            34.07,
            34.641,
            34.635,
            34.489,
            34.519,
            34.389,
            34.527,
            34.449,
            34.615,
            34.357,
            34.382,
            34.557,
            34.687,
            34.97,
            35.338,
            35.065,
            35.336,
            35.154,
            35.368,
            35.036,
            35.137,
            35.198,
            35.588,
            34.983,
            35.072,
            35.238,
            35.041,
            34.832,
            35.34,
            34.871,
            34.658,
            34.468,
            35.195,
            34.764,
            34.867,
            35.011,
            35.479,
            35.246,
            35.123,
            35.193,
            35.165,
            34.589,
            34.734,
            34.567,
            34.906,
            35.368,
            34.952,
            35.079,
            34.97,
            35.2,
            35.202,
            35.335,
            35.245,
            35.294,
            35.583,
            35.593,
            35.309,
            35.293,
            35.974,
            35.821,
            35.402,
            35.265,
            35.471,
            36.007,
            35.72,
            35.541,
            36.006,
            35.321,
            9.1598,
            9.2107,
            9.2155,
            9.3167,
            9.3719,
            9.6855,
            9.5301,
            9.4917,
            9.4934,
            9.5657,
            9.6214,
            9.5682,
            9.5966,
            9.6366,
            9.6443,
            9.6488,
            9.806,
            9.8176,
            9.7589,
            9.8153,
            9.9008,
            9.827,
            9.9218,
            9.8562,
            9.8866,
            9.8499,
            9.8848,
            9.8701,
            9.8583,
            9.9284,
            9.9168,
            9.9193,
            38.478,
            38.175,
            39.035,
            38.278,
            38.807,
            38.613,
            38.638,
            38.152,
            38.027,
            38.705,
            38.105,
            38.003,
            37.494,
            37.56,
            37.71,
            38.677,
            38.795,
            38.375,
            38.223,
            38.442,
            38.245,
            39.488,
            38.511,
            38.6,
            38.768,
            38.46,
            38.57,
            38.416,
            38.902,
            38.333,
            38.976,
            38.403,
            39.29,
            39.002,
            39.193,
            40.307,
            40.122,
            39.881,
            40.497,
            40.261,
            39.904,
            40.073,
            39.367,
            39.831,
            39.532,
            39.065,
            40.196,
            40.102,
            40.058,
            39.935,
            39.079,
            39.728,
            39.557,
            39.665,
            38.951,
            39.21,
            38.991,
            39.187,
            39.162,
            38.66,
            39.292,
            38.473,
            38.232,
            38.355,
            39.092,
            38.743,
            39.064,
            38.97,
            39.22,
            39.364,
            38.625,
            39.178,
            39.037,
            39.658,
            38.583,
            39.186,
            38.797,
            40.001,
            39.093,
            39.345,
            38.981,
            39.173,
            39.324,
            39.075,
            39.206,
            39.516,
            39.847,
            38.691,
            39.298,
            39.098,
            10.113,
            10.173,
            10.333,
            10.174,
            10.261,
            10.297,
            10.282,
            10.238,
            10.287,
            10.333,
            10.328,
            10.411,
            10.392,
            40.695,
            40.001,
            39.014,
            40.033,
            40.322,
            40.145,
            40.695,
            41.199,
            40.587,
            40.758,
            40.825,
            40.787,
            40.139,
            40.401,
            40.633,
            40.874,
            41.368,
            40.414,
            40.77,
            40.497,
            40.325,
            41.187,
            40.518,
            40.551,
            40.771,
            40.735,
            40.296,
            40.033,
            41.031,
            40.331,
            40.018,
            40.278,
            40.535,
            40.571,
            39.946,
            40.563,
            40.175,
            41.129,
            40.398,
            40.14,
            40.106,
            40.436,
            40.55,
            40.411,
            41.016,
            40.976,
            40.689,
            40.73,
            42.075,
            41.376,
            39.988,
            41.551,
            40.705,
            41.103,
            41.08,
            41.245,
            40.773,
            41.051,
            40.517,
            41.281,
            41.13,
            40.619,
            40.716,
            41.579,
            41.046,
            42.06,
            41.991,
            41.344,
            41.46,
            41.072,
            41.076,
            41.382,
            41.655,
            41.782,
            40.721,
            41.246,
            41.358,
            41.064,
            41.498,
            40.962,
            41.898,
            41.9,
            41.872,
            41.685,
            42.528,
            41.56,
            41.826,
            42.264,
            41.909,
            42.113,
            41.537,
            43.311,
            42.173,
            42.398,
            42.332,
            42.564,
            42.009,
            42.221,
            42.18,
            42.879,
            42.574,
            42.677,
            42.676,
            41.938,
            42.961,
            42.679,
            43.362,
            42.603,
            42.695,
            42.546,
            42.668,
            42.401,
            42.752,
            43.028,
            42.939,
            43.185,
            43.226,
            43.034,
            42.959,
            42.656,
            42.755,
            42.652,
            42.285,
            42.002,
            42.74,
            41.952,
            42.599,
            42.437,
            41.783,
            42.58,
            41.321,
            42.593,
            41.569,
            41.409,
            41.258,
            41.521,
            41.424,
            41.58,
            41.187,
            42.272,
            41.876,
            41.101,
            41.456,
            41.644,
            43.027,
            42.081,
            42.074,
            40.665,
            41.108,
            41.209,
            41.875,
            41.252,
            41.384,
            41.522,
            42.097,
            41.772,
            41.281,
            41.129,
            41.356,
            42.413,
            41.542,
            42.092,
            41.988,
            41.805,
            42.089,
            41.972,
            41.676,
            41.576,
            41.833,
            42.331,
            43.611,
            43.436,
            45.551,
            46.133,
            48.405,
            52.998,
            55.872,
            57.256,
            57.87,
            53.783,
            51.214,
            48.395,
            46.744,
            45.499,
            44.688,
            43.229,
            43.355,
            43.018,
            42.122,
            42.668,
            41.941,
            42.527,
            42.386,
            42.011,
            42.62,
            42.069,
            41.881,
            41.769,
            40.964,
            42.024,
            41.678,
            41.637,
            41.708,
            41.479,
            41.187,
            41.798,
            41.926,
            40.603,
            41.436,
            41.149,
            41.296,
            41.918,
            40.222,
            41.504,
            41.75,
            42.04,
            41.741,
            42.04,
            41.466,
            41.904,
            41.803,
            41.727,
            41.62,
            41.162,
            10.695,
            10.798,
            10.81,
            10.908,
            10.857,
            10.813,
            10.802,
            10.866,
            10.914,
            10.836,
            11.015,
            10.971,
            10.984,
            11.016,
            21.494,
            21.291,
            21.542,
            21.321,
            21.483,
            21.434,
            21.509,
            21.904,
            21.909,
            21.638,
            21.453,
            21.3,
            21.674,
            21.789,
            21.468,
            21.699,
            21.563,
            21.772,
            21.499,
            21.58,
            21.855,
            21.65,
            21.701,
            21.705,
            22.107,
            22.262,
            22.326,
            22.252,
            23.021,
            23.053,
            22.659,
            22.351,
            22.631,
            22.308,
            22.433,
            22.188,
            22.239,
            22.223,
            21.725,
            22.054,
            21.813,
            21.727,
            21.673,
            21.791,
            21.867,
            21.764,
            21.955,
            21.741,
            21.77,
            43.2,
            43.687,
            43.799,
            42.624,
            43.186,
            43.065,
            43.602,
            43.201,
            41.914,
            43.008,
            43.823,
            43.597,
            44.13,
            44.308,
            44.243,
            43.514,
            43.367,
            43.876,
            43.857,
            43.113,
            43.704,
            43.93,
            43.008,
            43.539,
            43.762,
            43.555,
            43.927,
            43.402,
            11.187,
            11.288,
            11.29,
            11.224,
            11.304,
            11.306,
            11.227,
            11.303,
            11.32,
            11.346,
            11.401,
            11.368,
            11.314,
            11.679,
            11.516,
            11.426,
            44.379,
            44.369,
            44.644,
            43.795,
            44.337,
            43.69,
            44.427,
            43.418,
            44.573,
            43.804,
            44.058,
            44.423,
            44.931,
            44.256,
            43.963,
            44.332,
            43.711,
            43.929,
            44.524,
            45.093,
            44.375,
            44.054,
            45.416,
            45.726,
            45.385,
            45.314,
            46.753,
            46.012,
            46.237,
            46.919,
            47.687,
            46.586,
            46.979,
            46.247,
            45.96,
            45.902,
            46.035,
            46.408,
            47.617,
            49.551,
            50.07,
            49.802,
            49.018,
            48.157,
            47.323,
            45.868,
            46.082,
            45.539,
            45.501,
            45.504,
            45.133,
            45.24,
            44.735,
            44.533,
            45.187,
            44.477,
            44.178,
            43.965,
            43.946,
            43.469,
            44.928,
            43.818,
            43.54,
            44.905,
            44.441,
            44.953,
            44.54,
            44.087,
            44.103,
            44.18,
            44.639,
            43.536,
            14.149,
            13.956,
            14.228,
            14.227,
            14.014,
            13.953,
            14.073,
            14.058,
            14.016,
            14.004,
            14.096,
            13.996,
            13.958,
            13.991,
            14.016,
            14.238,
            13.931,
            14.121,
            14.098,
            14.192,
            14.104,
            14.411,
            15.338,
            14.3,
            14.416,
            14.323,
            14.27,
            14.404,
            15.026,
            14.676,
            14.367,
            14.453,
            14.43,
            14.527,
            15.088,
            14.731,
            14.456,
            14.465,
            14.407,
            14.523,
            14.521,
            14.884,
            14.802,
            14.698,
            14.864,
            14.62,
            14.495,
            14.57,
            14.577,
            14.574,
            14.515,
            14.667,
            14.531,
            14.518,
            14.589,
            14.571,
            14.631,
            14.599,
            14.691,
            14.827,
            21.09,
            20.858,
            20.932,
            20.843,
            20.683,
            20.472,
            20.988,
            20.9,
            20.871,
            21.171,
            21.574,
            22.382,
            21.792,
            21.528,
            21.445,
            21.789,
            23.493,
            22.425,
            21.341,
            21.194,
            20.907,
            20.71,
            46.252,
            46.542,
            47.017,
            46.785,
            45.992,
            46.485,
            47.487,
            46.968,
            46.623,
            46.456,
            46.699,
            46.598,
            46.844,
            46.356,
            46.93,
            45.393,
            46.256,
            45.754,
            46.49,
            46.999,
            47.015,
            47.497,
            46.238,
            46.456,
            46.83,
            14.764,
            14.835,
            14.784,
            14.802,
            14.865,
            15.312,
            14.824,
            14.832,
            14.718,
            14.867,
            14.776,
            14.892,
            14.774,
            14.832,
            15.005,
            15.005,
            14.961,
            14.858,
            14.937,
            14.869,
            14.904,
            14.927,
            14.971,
            15.018,
            15.044,
            14.865,
            15.065,
            13.804,
            11.001,
            10.812,
            10.668,
            10.624,
            10.708,
            10.64,
            10.695,
            10.729,
            10.706,
            10.689,
            10.678,
            10.743,
            10.719,
            10.743,
            10.821,
            10.816,
            10.816,
            11.512,
            12.813,
            10.839,
            10.794,
            10.807,
            10.845,
            10.832,
            11.264,
            10.829,
            10.822,
            10.795,
            10.688,
            10.657,
            10.691,
            10.773,
            10.882,
            10.796,
            10.872,
            10.939,
            10.972,
            10.98,
            11.029,
            11.022,
            11.029,
            11.041,
            11.117,
            11.047,
            20.284,
            20.199,
            20.309,
            20.448,
            20.737,
            21.414,
            23.94,
            22.275,
            21.094,
            20.726,
            20.469,
            21.26,
            22.361,
            21.252,
            20.911,
            20.629,
            20.661,
            20.626,
            20.58,
            20.538,
            20.417,
            20.454,
            20.365,
            20.352,
            20.381,
            20.375,
            11.168,
            11.498,
            11.28,
            11.17,
            11.195,
            11.25,
            11.254,
            11.227,
            11.256,
            11.276,
            11.275,
            11.289,
            11.396,
            11.327,
            11.329,
            11.296,
            11.368,
            11.307,
            11.468,
            11.507,
            12.13,
            11.501,
            11.466,
            11.513,
            11.537,
            11.46,
            11.496,
            11.513,
            11.659,
            11.937,
            11.598,
            11.53,
            11.441,
            11.58,
            11.504,
            11.581,
            11.641,
            12.128,
            12.058,
            11.657,
            11.552,
            11.632,
            11.576,
            11.648,
            11.677,
            11.719,
            13.23,
            12.391,
            11.72,
            12.897,
            12.14,
            11.708,
            11.708,
            11.745,
            11.674,
            11.771,
            11.737,
            11.776,
            11.716,
            11.798,
            11.832,
            11.742,
            11.912,
            12.656,
            13.877,
            11.976,
            11.798,
            11.801,
            11.83,
            11.835,
            11.896,
            11.957,
            12.006,
            12.029,
            11.947,
            11.991,
            12.028,
            11.919,
            11.875,
            11.92,
            11.962,
            12.07,
            11.932,
            11.955,
            11.969,
            11.97,
            27.067,
            16.988,
            38.115,
            37.636,
            38.709,
            38.077,
            38.62,
            38.607,
            38.524,
            38.364,
            38.485,
            38.715,
            38.941,
            39.206,
            39.616,
            39.391,
            39.727,
            39.638,
            40.026,
            39.449,
            39.52,
            39.656,
            40.265,
            40.048,
            39.906,
            39.095,
            39.222,
            38.479,
            38.898,
            38.855,
            38.479,
            38.269,
            38.001,
            38.11,
            38.102,
            38.047,
            38.121,
            37.981,
            38.045,
            37.956,
            37.86,
            38.429,
            12.07,
            12.06,
            12.059,
            12.046,
            12.098,
            12.428,
            12.139,
            12.116,
            12.149,
            12.178,
            12.191,
            12.113,
            12.175,
            12.174,
            12.274,
            12.24,
            12.177,
            12.148,
            12.197,
            12.197,
            12.22,
            12.248,
            12.431,
            12.367,
            12.214,
            12.28,
            12.295,
            12.288,
            12.243,
            12.235,
            12.375,
            12.308,
            12.343,
            12.408,
            12.361,
            12.388,
            12.412,
            12.333,
            12.421,
            12.472,
            12.505,
            12.464,
            12.428,
            12.543,
            12.544,
            13.482,
            12.636,
            12.51,
            12.527,
            12.545,
            12.673,
            12.565,
            12.513,
            12.557,
            12.661,
            12.521,
            12.579,
            9.6701,
            9.0422,
            9.0004,
            9.0401,
            9.2002,
            11.466,
            16.585,
            9.4947,
            9.0507,
            8.9479,
            8.9964,
            9.0181,
            9.1403,
            9.0474,
            9.0685,
            12.823,
            12.875,
            13.403,
            13.106,
            12.936,
            12.969,
            13.051,
            13.0,
            13.117,
            13.071,
            13.176,
            13.235,
            13.214,
            13.349,
            13.303,
            13.257,
            13.239,
            13.354,
            13.282,
            13.214,
            13.131,
            13.137,
            13.1,
            13.084,
            13.114,
            13.153,
            13.085,
            13.15,
            13.077,
            13.079,
            13.147,
            13.308,
            13.658,
            13.25,
            29.552,
            29.375,
            29.223,
            29.014,
            29.285,
            28.963,
            29.372,
            29.276,
            29.28,
            28.952,
            29.315,
            29.193,
            29.044,
            29.321,
            29.399,
            29.461,
            29.382,
            29.261,
            29.592,
            29.469,
            29.368,
            29.454,
            29.013,
            29.407,
            29.29,
            9.2883,
            9.2526,
            9.3057,
            9.3325,
            9.3646,
            9.3865,
            9.3245,
            9.3554,
            9.3464,
            9.3986,
            9.4368,
            9.5497,
            9.466,
            9.5966,
            9.5627,
            9.4857,
            9.4663,
            9.7862,
            9.5875,
            9.5436,
            9.5908,
            9.5591,
            9.5827,
            9.6346,
            9.632,
            9.696,
            9.7234,
            9.7163,
            9.7666,
            9.7857,
            9.8515,
            10.324,
            10.788,
            10.224,
            10.068,
            10.447,
            11.237,
            10.676,
            10.428,
            10.604,
            10.854,
            11.137,
            11.664,
            12.493,
            12.686,
            13.723,
            15.235,
            17.353,
            20.371,
            23.662,
            25.885,
            25.608,
            23.461,
            20.713,
            17.719,
            15.625,
            14.187,
            13.221,
            13.802,
            12.24,
            11.504,
            11.277,
            11.034,
            10.821,
            10.71,
            10.593,
            10.552,
            10.469,
            10.419,
            10.395,
            10.294,
            10.301,
            10.291,
            10.304,
            10.243,
            10.242,
            10.229,
            10.181,
            10.253,
            10.252,
            10.214,
            10.251,
            11.566,
            11.491,
            10.289,
            10.189,
            10.22,
            10.268,
            10.45,
            10.21,
            10.205,
            10.173,
            10.238,
            10.245,
            10.232,
            10.232,
            10.208,
            10.237,
            10.22,
            10.203,
            10.225,
            10.247,
            10.269,
            10.254,
            10.316,
            10.33,
            10.311,
            10.271,
            10.348,
            10.344,
            10.41,
            10.786,
            10.446,
            10.345,
            10.345,
            10.431,
            10.387,
            10.461,
            10.401,
            10.433,
            10.484,
            10.478,
            10.427,
            10.475,
            10.464,
            10.453,
            10.502,
            10.447,
            10.472,
            10.517,
            10.457,
            10.498,
            10.536,
            10.639,
            10.765,
            15.114,
            22.29,
            11.81,
            10.736,
            10.585,
            10.57,
            10.577,
            10.57,
            10.639,
            10.582,
            10.567,
            10.613,
            10.629,
            10.595,
            10.634,
            10.62,
            10.647,
            10.61,
            10.673,
            10.751,
            11.356,
            11.107,
            10.774,
            10.75,
            10.725,
            10.715,
            10.736,
            10.727,
            10.768,
            10.802,
            9.5982,
            7.6484,
            7.6621,
            7.9126,
            8.1896,
            7.6976,
            7.7055,
            7.734,
            7.7123,
            7.7514,
            7.7755,
            7.8315,
            7.9324,
            8.188,
            14.962,
            20.142,
            8.3303,
            7.909,
            7.9368,
            8.1022,
            9.4969,
            8.7882,
            7.9418,
            7.9119,
            7.9015,
            7.9076,
            7.8813,
            7.9182,
            7.9167,
            7.9248,
            7.9424,
            7.9604,
            7.9347,
            7.9529,
            7.9944,
            8.0096,
            7.9892,
            8.0394,
            8.0412,
            8.077,
            8.0705,
            8.0874,
            8.0753,
            8.124,
            8.1306,
            8.1354,
            8.1582,
            8.2778,
            10.492,
            9.2097,
            8.2491,
            8.1588,
            8.2378,
            8.2368,
            8.5551,
            8.3627,
            8.229,
            8.2698,
            8.2536,
            8.2713,
            8.2556,
            8.242,
            8.303,
            8.3433,
            8.3255,
            8.3467,
            8.3206,
            8.3273,
            8.3475,
            8.3685,
            8.4036,
            8.4022,
            8.3929,
            8.3597,
            8.4359,
            8.4328,
            8.4458,
            8.4693,
            8.4532,
            8.482,
            8.4758,
            8.4753,
            8.5135,
            8.5091,
            8.487,
            8.5589,
            8.5504,
            8.5443,
            8.5763,
            8.5798,
            8.5741,
            8.6082,
            8.6096,
            8.6074,
            8.6202,
            8.6337,
            8.6495,
            8.6534,
            8.7178,
            8.6334,
            8.6722,
            8.6621,
            8.6973,
            8.6902,
            8.6938,
            8.7534,
            8.7732,
            8.7139,
            8.7545,
            8.8049,
            8.7996,
            8.8031,
            8.8159,
            8.807,
            8.8609,
            8.8089,
            8.8649,
            8.8637,
            8.8822,
            8.8879,
            8.9325,
            8.9031,
            8.9303,
            8.945,
            8.8916,
            8.902,
            8.9684,
            8.9687,
            8.976,
            8.9717,
            8.9968,
            9.0196,
            9.0166,
            9.0542,
            9.0372,
            9.0389,
            9.0648,
            9.0412,
            9.0462,
            9.1065,
            9.0745,
            9.0913,
            9.1295,
            9.1301,
            9.1327,
            9.147,
            9.1589,
            9.1343,
            9.1991,
            9.1633,
            9.2055,
            9.1532,
            9.2001,
            9.2377,
            9.2239,
            9.2418,
            9.2247,
            9.2231,
            9.2816,
            9.2807,
            9.3008,
            9.2944,
            9.3107,
            9.2696,
            9.3292,
            9.3786,
            9.3491,
            9.3325,
            9.355,
            9.378,
            9.3893,
            9.364,
            9.4416,
            9.4083,
            9.4459,
            9.428,
            9.4994,
            9.4884,
            9.4871,
            9.5214,
            9.5348,
            9.5339,
            9.6022,
            9.7935,
            10.372,
            11.837,
            12.22,
            10.945,
            9.9605,
            9.7273,
            9.6527,
            9.6128,
            9.6126,
            9.6358,
            9.6381,
            9.6172,
            9.6225,
            9.6562,
            9.6566,
            9.6738,
            8.6662,
            6.845,
            6.8568,
            6.8623,
            6.881,
            6.9154,
            6.9148,
            6.934,
            6.9416,
            6.9554,
            6.967,
            6.9684,
            6.9989,
            6.9931,
            7.0072,
            7.0292,
            7.0467,
            7.0657,
            7.0458,
            7.0678,
            7.0849,
            7.1133,
            7.117,
            7.1224,
            7.1487,
            7.1801,
            7.1873,
            7.1875,
            7.196,
            7.1969,
            7.2379,
            7.2526,
            7.2522,
            7.299,
            7.2969,
            7.3409,
            7.41,
            7.3924,
            7.341,
            7.3466,
            7.3348,
            7.3556,
            7.3559,
            7.3795,
            7.3801,
            7.4003,
            7.4098,
            7.4354,
            7.439,
            7.4337,
            7.4636,
            7.5134,
            7.4976,
            7.4947,
            7.5146,
            7.5157,
            7.5342,
            7.5448,
            7.5824,
            7.566,
            7.5836,
            7.5657,
            7.5981,
            7.5886,
            7.6317,
            7.6488,
            7.6429,
            7.683,
            7.6753,
            7.7265,
            7.7177,
            7.713,
            7.7302,
            7.7497,
            7.751,
            7.7782,
            7.7889,
            7.7797,
            7.8158,
            7.816,
            7.8378,
            7.8225,
            7.8333,
            7.855,
            7.8796,
            7.9031,
            7.8856,
            7.9155,
            7.9217,
            7.9285,
            7.9405,
            7.9815,
            7.9705,
            8.007,
            8.0104,
            8.0134,
            8.0201,
            8.041,
            8.0336,
            8.0719,
            8.0955,
            8.0763,
            8.0966,
            8.1025,
            8.1126,
            8.1573,
            8.1611,
            8.1683,
            8.1399,
            8.1669,
            8.1735,
            8.1947,
            8.1982,
            8.2177,
            8.2103,
            8.247,
            8.2452,
            8.2736,
            8.2728,
            8.281,
            8.2916,
            8.3182,
            8.3053,
            8.3472,
            8.3633,
            8.3754,
            8.3789,
            8.3825,
            8.4001,
            8.3764,
            8.3804,
            8.4474,
            8.4491,
            8.4765,
            8.4568,
            8.4681,
            8.4765,
            8.5106,
            8.5054,
            8.5232,
            8.5771,
            8.5559,
            8.5237,
            8.586,
            8.5765,
            8.5978,
            8.6226,
            8.575,
            8.617,
            8.627,
            7.7055,
            6.135,
            6.145,
            6.158,
            6.1836,
            6.1901,
            6.1945,
            6.2302,
            6.2271,
            6.2495,
            6.291,
            6.2769,
            6.3082,
            6.3055,
            6.3244,
            6.3358,
            6.362,
            6.366,
            6.3981,
            6.4175,
            6.4264,
            6.4573,
            6.4599,
            6.4767,
            6.493,
            6.5044,
            6.5259,
            6.5453,
            6.5479,
            6.5689,
            6.5727,
            6.5779,
            6.6078,
            6.6372,
            6.6441,
            6.6676,
            6.6619,
            6.7059,
            6.7125,
            6.7201,
            6.725,
            6.7396,
            6.7741,
            6.7838,
            6.8131,
            6.8598,
            6.8871,
            6.9067,
            6.9038,
            6.9005,
            6.9251,
            6.92,
            6.9338,
            6.9471,
            6.9582,
            6.9541,
            6.9686,
            6.9992,
            7.0278,
            7.0388,
            7.0464,
            7.07,
            7.0682,
            7.0834,
            7.0994,
            7.1168,
            7.1478,
            7.1353,
            7.1556,
            7.173,
            7.1816,
            7.2229,
            7.2043,
            7.2381,
            7.2373,
            7.2717,
            7.2732,
            7.3049,
            7.3067,
            7.3232,
            7.3355,
            7.3577,
            7.3461,
            7.3699,
            7.4014,
            7.4137,
            7.42,
            7.4434,
            7.4346,
            7.4694,
            7.4889,
            7.4824,
            7.5178,
            7.5327,
            7.56,
            7.5501,
            7.5766,
            7.5992,
            7.5959,
            7.635,
            6.8267,
            5.4146,
            5.4397,
            5.4558,
            5.4721,
            5.4941,
            5.524,
            5.5362,
            5.5607,
            5.5884,
            5.6044,
            5.6121,
            5.6394,
            5.6776,
            5.6827,
            5.7136,
            5.7086,
            5.7445,
            5.7747,
            5.7701,
            5.792,
            5.8429,
            5.8565,
            5.8605,
            5.8744,
            5.9023,
            5.9216,
            5.9426,
            5.9663,
            5.9804,
            6.0012,
            6.0268,
            6.0568,
            6.0635,
            6.089,
            6.0996,
            6.1212,
            6.1469,
            6.1646,
            6.1896,
            6.2031,
            6.2178,
            6.2592,
            6.2926,
            6.2728,
            6.3055,
            6.3283,
            6.3403,
            6.3719,
            6.386,
            6.3863,
            6.4192,
            6.471,
            6.473,
            6.4962,
            6.5098,
            6.539,
            6.5198,
            6.5738,
            6.5837,
            6.613,
            6.6464,
            6.6731,
            6.6635,
            6.6793,
            6.7112,
            6.738,
            6.7346,
            6.7535,
            6.7895,
            6.8124,
            6.848,
            6.8423,
            6.8894,
            6.892,
            6.9064,
            6.9156,
            6.9578,
            6.9789,
            6.9835,
            7.0209,
            7.0227,
            7.0619,
            7.075,
            7.0918,
            7.113,
            7.1328,
            7.1575,
            7.1621,
            7.2102,
            7.1982,
            7.2407,
            7.2199,
            7.2894,
            7.317,
            7.3116,
            7.3486,
            7.3375,
            7.4027,
            7.4055,
            6.6151,
            5.2766,
            5.3197,
            5.3392,
            5.3686,
            5.414,
            5.4493,
            5.4621,
            5.513,
            5.5229,
            5.5656,
            5.6063,
            5.6336,
            5.6626,
            5.6912,
            5.7271,
            5.7568,
            5.7944,
            5.8225,
            5.8556,
            5.9154,
            5.9533,
            5.984,
            6.0176,
            6.0641,
            6.099,
            6.1344,
            6.1952,
            6.219,
            6.269,
            6.3293,
            6.3786,
            6.4083,
            6.4707,
            6.5053,
            6.5572,
            6.6066,
            6.6647,
            6.7023,
            6.7633,
            6.8257,
            6.8775,
            6.9341,
            6.9869,
            7.0606,
            7.1077,
            7.1816,
            7.2342,
            7.3561,
            7.3789,
            7.4388,
            7.5397,
            7.6194,
            7.7046,
            7.7501,
            7.8545,
            7.9331,
            8.0444,
            8.1011,
            8.2389,
            8.3034,
            8.4361,
            8.5609,
            8.6658,
            8.7617,
            8.8949,
            9.0485,
            9.2147,
            9.3735,
            9.4701,
            9.6952,
            9.8736,
            10.002,
            10.211,
            10.429,
            10.66,
            10.859,
            11.087,
            11.368,
            11.643,
            11.907,
            12.204,
            12.567,
            12.835,
            13.151,
            13.558,
            14.031,
            14.465,
            14.828,
            15.358,
            15.975,
            16.486,
            17.087,
            17.733,
            18.486,
            19.252,
            20.003,
            21.186,
            22.216,
            23.315,
            24.446,
            25.617,
            37.402
          ]
        ]
      }
    },
    "003": {
      "common": null,
      "data": {
        "heads": [
          "EN",
          "DATA",
          "DATA-ERR"
        ],
        "units": [
          "EV",
          "B",
          "B"
        ],
        "data": [
          [
            15476.0,
            14741.0,
            14058.0,
            13420.0,
            12825.0,
            12269.0,
            11748.0,
            11260.0,
            10802.0,
            10371.0,
            9964.8,
            9582.4,
            9221.6,
            8880.8,
            8558.5,
            8253.5,
            7964.5,
            7690.4,
            7430.2,
            7183.0,
            6948.0,
            6724.3,
            6511.2,
            6308.1,
            6114.4,
            5929.4,
            5752.7,
            5583.8,
            5422.2,
            5267.6,
            5119.4,
            4977.4,
            4841.3,
            4710.6,
            4585.2,
            4464.7,
            4349.0,
            4237.6,
            4130.5,
            4027.4,
            3928.1,
            3832.4,
            3740.2,
            3651.3,
            3565.5,
            3482.6,
            3402.7,
            3325.5,
            3250.8,
            3178.7,
            3108.9,
            3041.4,
            2976.1,
            2912.8,
            2851.6,
            2792.3,
            2734.8,
            2679.0,
            2624.9,
            2572.5,
            2521.6,
            2472.2,
            2424.3,
            2377.7,
            2332.5,
            2288.5,
            2245.8,
            2204.2,
            2163.8,
            2124.5,
            2086.3,
            2049.1,
            2012.9,
            1977.6,
            1943.2,
            1909.7,
            1877.1,
            1845.3,
            1814.4,
            1784.2,
            1754.7,
            1726.0,
            1644.5,
            1520.0,
            1409.2,
            1310.0,
            1221.0,
            1140.7,
            1068.1,
            1002.2,
            942.23,
            887.49,
            837.38,
            791.4,
            749.1,
            710.11,
            674.08,
            640.73,
            609.8,
            581.05,
            554.29,
            529.33,
            506.02,
            484.22,
            463.8,
            444.65,
            426.65,
            409.73,
            400.02,
            396.87,
            393.76,
            390.68,
            387.64,
            384.64,
            381.67,
            378.74,
            375.83,
            372.97,
            370.13,
            367.33,
            364.56,
            361.82,
            359.11,
            356.43,
            353.78,
            351.16,
            348.57,
            346.01,
            343.48,
            340.97,
            338.49,
            336.04,
            333.61,
            331.21,
            328.84,
            326.49,
            324.17,
            321.87,
            319.6,
            317.35,
            315.12,
            312.92,
            310.74,
            308.58,
            306.45,
            304.34,
            302.24,
            300.18,
            298.13,
            296.1,
            294.09,
            292.11,
            290.14,
            288.19,
            286.27,
            284.36,
            282.47,
            280.6,
            278.75,
            276.92,
            275.1,
            273.3,
            271.52,
            269.76,
            268.02,
            266.29,
            264.58,
            262.88,
            261.2,
            259.54,
            256.26,
            252.25,
            249.11,
            246.02,
            243.0,
            240.02,
            237.11,
            234.24,
            231.43,
            228.67,
            225.95,
            223.29,
            220.67,
            218.1,
            215.57,
            213.09,
            210.65,
            208.25,
            205.89,
            203.57,
            201.29,
            199.05,
            196.84,
            194.67,
            192.54,
            190.44,
            188.38,
            186.35,
            184.35,
            182.38,
            180.45,
            178.55,
            176.67,
            174.83,
            173.01,
            171.22,
            169.46,
            163.55,
            154.05,
            145.35,
            137.37,
            130.03,
            123.26,
            117.01,
            111.22,
            105.85,
            100.86,
            96.215,
            91.884,
            87.838,
            84.054,
            80.51,
            77.184,
            74.061,
            71.124,
            68.358,
            65.75,
            63.289,
            60.963,
            58.763,
            56.68,
            54.706,
            52.834,
            51.056,
            49.366,
            47.758,
            46.228,
            44.771,
            43.381,
            42.055,
            40.788,
            39.579,
            38.422,
            37.315,
            36.255,
            35.24,
            34.267,
            33.334,
            32.438,
            31.578,
            30.751,
            29.957,
            29.193,
            28.458,
            27.75,
            27.069,
            26.412,
            25.779,
            25.168,
            24.579,
            24.01,
            23.461,
            22.93,
            22.417,
            21.921,
            21.442,
            20.978,
            20.529,
            20.094,
            19.673,
            19.265,
            18.869,
            18.486,
            18.114,
            17.753,
            17.403,
            17.063,
            16.733,
            16.413,
            16.102,
            15.799,
            15.505,
            15.219,
            14.941,
            14.67,
            14.407,
            14.151,
            13.901,
            13.658,
            13.421,
            13.191,
            12.966,
            12.747,
            12.534,
            12.326,
            12.123,
            11.925,
            11.731,
            11.543,
            11.359,
            11.179,
            11.004,
            10.832,
            10.665,
            10.501,
            10.341,
            10.185,
            10.033,
            9.8833,
            9.7374,
            9.5946,
            9.455,
            9.3184,
            9.1847,
            9.0539,
            8.9259,
            8.8005,
            8.6778,
            8.5576,
            8.4399,
            8.3247,
            8.2117,
            8.1011,
            7.9926,
            7.8864,
            7.7822,
            7.6801,
            7.58,
            7.4818,
            7.3855,
            7.2911,
            7.1985,
            7.1076,
            7.0184,
            6.9309,
            6.8451,
            6.7608,
            6.6781,
            6.5968,
            6.5171,
            6.4388,
            6.3618,
            6.2863,
            6.2121,
            6.1392,
            6.0676,
            5.9972,
            5.928,
            5.86,
            5.7932,
            5.7276,
            5.663,
            5.5995,
            5.5371,
            5.4757,
            5.4154,
            5.356,
            5.2976,
            5.2401,
            5.1836,
            5.128,
            5.0733,
            5.0194,
            4.9665,
            4.9143,
            4.8629,
            4.8124,
            4.7626,
            4.7137,
            4.6654,
            4.6396,
            4.6356,
            4.6317,
            4.6277,
            4.6238,
            4.6198,
            4.6159,
            4.612,
            4.6081,
            4.6042,
            4.6003,
            4.5963,
            4.5925,
            4.5886,
            4.5847,
            4.5808,
            4.5769,
            4.573,
            4.5692,
            4.5653,
            4.5614,
            4.5576,
            4.5537,
            4.5499,
            4.5461,
            4.5422,
            4.5384,
            4.5346,
            4.5307,
            4.5269,
            4.5231,
            4.5193,
            4.5155,
            4.5117,
            4.5079,
            4.5041,
            4.4797,
            4.435,
            4.3909,
            4.3476,
            4.3048,
            4.2819,
            4.2784,
            4.2749,
            4.2714,
            4.2679,
            4.2644,
            4.2609,
            4.2574,
            4.254,
            4.2505,
            4.247,
            4.2436,
            4.2401,
            4.2367,
            4.2332,
            4.2298,
            4.2263,
            4.2229,
            4.2195,
            4.216,
            4.2126,
            4.2092,
            4.2058,
            4.2023,
            4.1989,
            4.1955,
            4.1921,
            4.1887,
            4.1853,
            4.182,
            4.1786,
            4.1752,
            4.1718,
            4.1685,
            4.1651,
            4.1617,
            4.1584,
            4.155,
            4.1517,
            4.1483,
            4.145,
            4.1416,
            4.1383,
            4.135,
            4.1316,
            4.1283,
            4.125,
            4.1217,
            4.1184,
            4.1151,
            4.1118,
            4.1085,
            4.1052,
            4.1019,
            4.0986,
            4.0953,
            4.092,
            4.0888,
            4.0855,
            4.0822,
            4.079,
            4.0757,
            4.0724,
            4.0692,
            4.0659,
            4.0627,
            4.0595,
            4.0562,
            4.053,
            4.0498,
            4.0465,
            4.0433,
            4.0401,
            4.0369,
            4.0337,
            4.0305,
            4.0273,
            4.0241,
            4.0209,
            4.0177,
            4.0145,
            4.0113,
            4.0082,
            4.005,
            4.0018,
            3.9813,
            3.9438,
            3.9069,
            3.8705,
            3.8346,
            3.7991,
            3.7642,
            3.7297,
            3.6958,
            3.6622,
            3.6292,
            3.5966,
            3.5644,
            3.5326,
            3.5013,
            3.4704,
            3.4399,
            3.4098,
            3.3751,
            3.3194,
            3.2627,
            3.2074,
            3.1535,
            3.101,
            3.0498,
            2.9998,
            2.951,
            2.9034,
            2.857,
            2.8117,
            2.7674,
            2.7242,
            2.682,
            2.6407,
            2.6004,
            2.561,
            2.5225,
            2.4849,
            2.4481,
            2.4121,
            2.3769,
            2.3425,
            2.3088,
            2.2758,
            2.2435,
            2.2119,
            2.181,
            2.1507,
            2.1211,
            2.092,
            2.0636,
            2.0357,
            2.0084,
            1.9816,
            1.9554,
            1.9297,
            1.9044,
            1.8797,
            1.8555,
            1.8317,
            1.8084,
            1.7855,
            1.763,
            1.741,
            1.7194,
            1.6982,
            1.6773,
            1.6569,
            1.6368,
            1.6171,
            1.5977,
            1.5787,
            1.56,
            1.5417,
            1.5237,
            1.5059,
            1.4885,
            1.4714,
            1.4546,
            1.4381,
            1.4218,
            1.4059,
            1.3902,
            1.3747,
            1.3595,
            1.3446,
            1.3299,
            1.3155,
            1.3012,
            1.2873,
            1.2735,
            1.2599,
            1.2466,
            1.2335,
            1.2206,
            1.2079,
            1.1954,
            1.183,
            1.1709,
            1.159,
            1.1472,
            1.1353,
            1.1158,
            1.0937,
            1.0723,
            1.0515,
            1.0313,
            1.0117,
            0.99264,
            0.97411,
            0.9561,
            0.93858,
            0.92154,
            0.90496,
            0.88882,
            0.87311,
            0.85781,
            0.84291,
            0.8284,
            0.81425,
            0.80047,
            0.78703,
            0.77393,
            0.76115,
            0.74869,
            0.73653,
            0.72467,
            0.71309,
            0.70178,
            0.69074,
            0.67996,
            0.66943,
            0.65914,
            0.64909,
            0.63927,
            0.62967,
            0.62028,
            0.6111,
            0.60212,
            0.59334,
            0.58475,
            0.57635,
            0.56812,
            0.56007,
            0.55219,
            0.54448,
            0.53692,
            0.52952,
            0.52228,
            0.51518,
            0.50822,
            0.50141,
            0.49473,
            0.48818,
            0.48177,
            0.47548,
            0.46931,
            0.46326,
            0.45732,
            0.4515,
            0.44579,
            0.44019,
            0.43469,
            0.4293,
            0.424,
            0.41881,
            0.4137,
            0.40869,
            0.40377,
            0.39894,
            0.3942,
            0.38954,
            0.38496,
            0.38046,
            0.37604,
            0.37169,
            0.36743,
            0.36323,
            0.35911,
            0.35505,
            0.35107,
            0.34715,
            0.34329,
            0.3395,
            0.33577,
            0.33211,
            0.3285,
            0.32495,
            0.32146,
            0.31803,
            0.31465,
            0.31132,
            0.30804,
            0.30482,
            0.30165,
            0.29852,
            0.29545,
            0.29242,
            0.28944,
            0.2865,
            0.28361,
            0.28076,
            0.27796,
            0.27519,
            0.27247,
            0.26979,
            0.26715,
            0.26454,
            0.26198,
            0.25945,
            0.25695,
            0.2545,
            0.25207,
            0.24969,
            0.24733,
            0.24501,
            0.24282
          ],
          [
            14.198,
            28.981,
            10.091,
            5.7038,
            6.0272,
            20.079,
            27.247,
            9.2246,
            2.4191,
            13.407,
            8.9706,
            16.108,
            59.462,
            11.185,
            1.6355,
            14.817,
            9.725,
            27.927,
            19.571,
            17.769,
            33.361,
            40.144,
            82.218,
            190.77,
            103.53,
            24.189,
            31.129,
            9.2266,
            -2.3046,
            15.153,
            24.336,
            22.357,
            23.236,
            9.5815,
            33.007,
            29.263,
            87.327,
            176.59,
            110.88,
            36.235,
            28.047,
            9.415,
            4.4485,
            21.566,
            -0.79503,
            -0.42181,
            13.995,
            9.9334,
            40.213,
            76.963,
            11.27,
            6.4555,
            0.69417,
            4.2411,
            -1.7434,
            11.784,
            20.282,
            12.624,
            -7.8303,
            -3.4397,
            -19.519,
            -5.558,
            -15.807,
            -4.3698,
            -0.1693,
            -12.629,
            -5.6271,
            9.481,
            -6.4231,
            -2.8742,
            -11.725,
            7.0132,
            -8.0544,
            -13.622,
            8.8764,
            -3.4769,
            16.903,
            24.813,
            9.8763,
            15.491,
            10.734,
            20.124,
            14.548,
            10.906,
            10.964,
            12.43,
            12.043,
            12.95,
            11.116,
            13.099,
            8.5048,
            14.743,
            11.434,
            17.795,
            17.143,
            15.964,
            4.0763,
            7.0388,
            5.4013,
            9.9309,
            14.564,
            14.368,
            12.018,
            8.2159,
            7.7315,
            18.146,
            9.9441,
            11.93,
            26.427,
            4.5392,
            24.095,
            14.804,
            4.516,
            40.171,
            5.0108,
            5.2438,
            16.642,
            17.358,
            48.373,
            -13.788,
            20.428,
            -1.5234,
            33.222,
            86.409,
            11.039,
            -35.027,
            16.066,
            25.721,
            20.864,
            19.96,
            19.054,
            -1.2645,
            45.712,
            25.995,
            29.126,
            27.185,
            19.375,
            25.428,
            -3.0295,
            2.2501,
            -8.2695,
            72.915,
            10.926,
            31.19,
            41.622,
            18.814,
            30.961,
            30.186,
            30.635,
            11.317,
            42.162,
            41.948,
            26.746,
            31.651,
            42.221,
            55.165,
            37.173,
            31.428,
            19.392,
            44.241,
            55.879,
            59.534,
            28.249,
            59.423,
            60.202,
            55.387,
            58.593,
            64.093,
            54.536,
            59.504,
            73.175,
            70.398,
            94.24,
            93.664,
            112.67,
            138.66,
            162.11,
            186.18,
            207.97,
            244.24,
            299.71,
            356.71,
            494.87,
            627.31,
            833.8,
            1128.5,
            1583.0,
            2207.7,
            2879.9,
            3111.1,
            2714.0,
            2066.4,
            1484.5,
            1091.0,
            803.56,
            615.92,
            484.75,
            381.6,
            306.9,
            250.9,
            214.8,
            197.04,
            173.13,
            143.31,
            136.49,
            117.61,
            96.97,
            78.164,
            52.876,
            40.434,
            29.184,
            29.523,
            29.126,
            21.591,
            14.562,
            27.266,
            19.63,
            17.452,
            15.269,
            16.886,
            22.386,
            15.962,
            18.985,
            9.6328,
            15.287,
            17.192,
            14.206,
            22.473,
            15.417,
            12.008,
            8.6594,
            15.46,
            12.774,
            14.984,
            11.179,
            10.994,
            10.239,
            13.327,
            11.293,
            7.2454,
            19.221,
            11.604,
            9.8874,
            4.2762,
            10.273,
            13.352,
            12.784,
            21.63,
            14.342,
            10.026,
            15.167,
            20.414,
            11.963,
            15.267,
            12.99,
            -0.10036,
            15.65,
            9.4178,
            10.275,
            11.217,
            12.332,
            14.158,
            14.494,
            11.671,
            20.227,
            5.7058,
            13.711,
            6.0914,
            9.6829,
            23.055,
            19.492,
            23.657,
            20.635,
            7.7252,
            15.049,
            14.289,
            9.7081,
            16.02,
            2.5322,
            12.788,
            6.5355,
            14.044,
            13.309,
            6.9365,
            6.5063,
            15.1,
            5.2301,
            17.804,
            10.456,
            7.4227,
            16.254,
            13.816,
            9.2435,
            13.229,
            19.614,
            16.276,
            17.675,
            20.4,
            11.566,
            11.473,
            9.4145,
            18.663,
            19.376,
            10.217,
            16.429,
            17.471,
            22.423,
            14.414,
            22.241,
            15.607,
            5.8149,
            16.139,
            13.433,
            13.07,
            12.32,
            -0.82545,
            11.829,
            4.0402,
            18.877,
            18.968,
            11.482,
            21.106,
            9.75,
            14.946,
            19.906,
            14.788,
            11.452,
            -3.6883,
            13.348,
            12.198,
            12.35,
            7.2227,
            11.662,
            15.059,
            5.6036,
            11.999,
            -2.9308,
            20.391,
            9.2022,
            5.3256,
            16.997,
            14.979,
            18.006,
            17.09,
            -5.2417,
            13.003,
            16.33,
            10.498,
            17.953,
            21.615,
            14.501,
            1.4996,
            19.82,
            13.935,
            22.89,
            18.838,
            10.209,
            13.815,
            28.016,
            12.984,
            11.93,
            6.3167,
            14.556,
            14.159,
            19.693,
            22.059,
            2.388,
            16.335,
            16.454,
            10.173,
            -11.306,
            -17.856,
            53.505,
            49.779,
            25.007,
            5.0746,
            -2.842,
            -20.733,
            39.505,
            2.5257,
            58.172,
            9.6308,
            52.501,
            86.151,
            45.973,
            42.808,
            1.1429,
            30.66,
            26.34,
            10.451,
            37.651,
            16.481,
            9.3857,
            16.991,
            -33.182,
            -25.853,
            23.539,
            14.171,
            0.47793,
            -43.804,
            -10.866,
            13.124,
            -6.959,
            -21.724,
            0.42896,
            6.9868,
            12.012,
            9.1933,
            12.751,
            5.1416,
            15.814,
            26.539,
            75.401,
            -9.0068,
            20.792,
            10.042,
            -35.422,
            8.0238,
            7.2712,
            61.38,
            -1.345,
            4.4846,
            8.1788,
            35.732,
            32.716,
            11.372,
            30.699,
            48.027,
            62.668,
            53.418,
            66.195,
            15.709,
            -6.2436,
            15.363,
            10.683,
            -34.069,
            14.414,
            39.443,
            12.292,
            20.155,
            29.195,
            -16.768,
            -48.013,
            34.172,
            54.87,
            37.059,
            -25.993,
            -22.728,
            38.117,
            27.418,
            -1.8777,
            9.5779,
            -1.7223,
            37.244,
            11.977,
            19.697,
            2.5765,
            55.041,
            0.49698,
            80.325,
            15.924,
            -25.539,
            1.2741,
            -18.645,
            -12.023,
            -11.502,
            20.532,
            -15.517,
            23.543,
            2.9128,
            44.734,
            51.027,
            -19.719,
            45.05,
            30.703,
            54.644,
            -5.2071,
            34.741,
            6.3845,
            21.612,
            23.551,
            -19.574,
            22.267,
            19.985,
            15.97,
            77.038,
            52.842,
            105.51,
            0.58807,
            21.932,
            -4.9897,
            47.65,
            31.946,
            31.988,
            -4.1945,
            11.968,
            14.384,
            17.047,
            5.7832,
            29.722,
            31.755,
            20.835,
            16.692,
            12.097,
            18.393,
            5.8493,
            25.155,
            23.115,
            11.051,
            14.016,
            21.609,
            5.6076,
            18.145,
            23.704,
            18.111,
            13.084,
            11.163,
            17.123,
            19.271,
            17.024,
            14.557,
            17.124,
            18.946,
            13.243,
            15.407,
            15.952,
            14.256,
            16.331,
            14.39,
            18.385,
            16.207,
            12.784,
            8.5245,
            14.091,
            14.458,
            8.6658,
            15.849,
            9.519,
            25.369,
            10.671,
            17.708,
            14.839,
            8.1347,
            14.187,
            20.787,
            29.56,
            18.6,
            17.956,
            23.394,
            21.231,
            16.27,
            7.4817,
            17.694,
            19.496,
            18.604,
            24.185,
            22.875,
            14.471,
            7.3186,
            32.743,
            20.402,
            19.213,
            23.155,
            22.0,
            15.917,
            20.675,
            22.474,
            19.069,
            23.382,
            8.1274,
            27.461,
            15.004,
            20.004,
            25.861,
            25.46,
            21.731,
            7.7622,
            12.696,
            14.259,
            28.699,
            19.558,
            29.234,
            12.924,
            25.21,
            23.731,
            16.853,
            10.599,
            23.641,
            11.363,
            27.631,
            18.167,
            15.143,
            38.955,
            22.438,
            12.334,
            40.07,
            17.084,
            24.543,
            17.915,
            25.137,
            27.739,
            20.095,
            18.101,
            25.312,
            24.959,
            20.477,
            18.527,
            27.482,
            25.071,
            15.105,
            19.363,
            26.292,
            15.253,
            12.665,
            12.969,
            25.854,
            15.703,
            20.439,
            10.896,
            29.257,
            18.81,
            32.773,
            16.833,
            25.629,
            33.941,
            22.613,
            25.117,
            22.277,
            33.809,
            11.175,
            18.304,
            25.051,
            9.292,
            21.21,
            22.3,
            16.946,
            14.981,
            26.476,
            17.653,
            33.913,
            33.609,
            25.412,
            40.766,
            27.499,
            22.739,
            23.681,
            30.835,
            15.0,
            29.328,
            20.167,
            34.032,
            27.812,
            31.145,
            15.742,
            18.136,
            31.582,
            36.136,
            24.407,
            31.465,
            20.259,
            44.583,
            23.288,
            18.494,
            0.22682,
            24.513,
            50.719,
            24.318,
            17.541,
            34.158,
            33.815,
            25.393,
            3.8048,
            28.229,
            41.239,
            34.423,
            18.44,
            14.267,
            45.833,
            22.287,
            83.042,
            32.041,
            48.505,
            -13.95,
            12.853,
            39.459,
            64.47,
            42.003,
            73.777,
            33.685,
            -1.4102,
            -10.514,
            117.4,
            72.412,
            60.756,
            44.284,
            45.254,
            25.544,
            30.863,
            40.364,
            -52.823,
            -25.183,
            -62.413,
            -20.287,
            18.613,
            110.94,
            10.895,
            -29.487,
            -81.516,
            6.0172,
            155.83,
            -26.928,
            91.413,
            159.82
          ],
          [
            6.7964,
            6.8441,
            6.8736,
            6.9227,
            6.9918,
            7.0277,
            7.0541,
            7.0443,
            7.0372,
            7.0555,
            7.0788,
            7.086,
            7.2812,
            7.2109,
            7.2456,
            7.3243,
            7.3459,
            7.3173,
            7.3744,
            7.4152,
            7.4813,
            7.5145,
            7.6784,
            7.8735,
            7.697,
            8.2844,
            7.6962,
            7.6617,
            7.7482,
            7.7253,
            7.7478,
            7.7837,
            7.841,
            7.8615,
            7.9608,
            7.9543,
            8.0581,
            8.3277,
            8.1079,
            8.0315,
            8.0274,
            8.0464,
            8.0434,
            8.0466,
            8.0664,
            8.1268,
            8.1068,
            8.241,
            8.2065,
            8.5341,
            8.1705,
            8.2463,
            8.1723,
            8.1705,
            8.1609,
            8.1953,
            8.2399,
            8.551,
            8.3485,
            8.5304,
            8.4327,
            8.594,
            8.4451,
            8.6136,
            8.5293,
            8.4913,
            8.4984,
            8.5047,
            8.5552,
            8.6017,
            8.7509,
            8.9492,
            8.6542,
            8.607,
            8.659,
            8.7029,
            8.6367,
            8.6736,
            8.7211,
            8.7081,
            8.7399,
            8.7521,
            3.9678,
            3.9642,
            4.1029,
            3.9967,
            4.035,
            4.1556,
            4.1699,
            4.1566,
            4.2005,
            4.2786,
            4.2863,
            4.3353,
            4.4826,
            4.3366,
            4.4884,
            4.4056,
            4.4205,
            4.4703,
            4.4878,
            4.5082,
            4.5353,
            4.5501,
            4.5907,
            4.6758,
            4.652,
            4.7518,
            10.741,
            11.534,
            20.288,
            13.005,
            10.847,
            10.495,
            10.466,
            10.519,
            10.547,
            10.574,
            10.601,
            10.603,
            10.555,
            10.593,
            10.599,
            10.794,
            10.662,
            10.818,
            10.684,
            10.684,
            10.714,
            10.769,
            10.775,
            10.832,
            10.825,
            10.738,
            10.748,
            10.761,
            10.751,
            10.778,
            10.894,
            10.771,
            10.915,
            10.948,
            11.028,
            10.812,
            10.84,
            10.838,
            10.825,
            10.825,
            10.811,
            10.917,
            10.899,
            10.953,
            10.972,
            10.947,
            10.919,
            10.96,
            10.925,
            11.029,
            10.981,
            11.16,
            11.139,
            11.091,
            11.106,
            11.357,
            11.15,
            11.092,
            11.089,
            11.233,
            11.495,
            11.19,
            6.471,
            7.9249,
            7.9844,
            8.0272,
            8.0559,
            8.0871,
            8.1691,
            8.8118,
            8.4369,
            8.5192,
            9.2041,
            8.6666,
            8.8942,
            9.2619,
            10.201,
            10.822,
            12.628,
            15.952,
            20.751,
            22.813,
            19.389,
            15.144,
            12.366,
            11.099,
            10.584,
            9.4549,
            9.1408,
            8.8969,
            8.7603,
            8.6674,
            8.6132,
            8.5323,
            8.5033,
            8.5016,
            8.4775,
            8.4429,
            8.4722,
            3.5642,
            3.4531,
            3.4712,
            3.5273,
            3.5349,
            4.2842,
            3.6625,
            3.6245,
            3.6499,
            3.744,
            3.6957,
            4.6793,
            5.6254,
            4.0523,
            3.7808,
            3.802,
            3.8341,
            3.8683,
            4.0071,
            4.19,
            3.9906,
            3.9539,
            3.9879,
            4.0078,
            4.0306,
            4.0534,
            4.0788,
            4.1031,
            4.1252,
            4.1472,
            4.1675,
            4.1969,
            4.2207,
            4.2494,
            4.2674,
            4.2896,
            4.3192,
            4.334,
            4.361,
            4.3832,
            4.3991,
            4.4229,
            4.4462,
            4.4698,
            4.4954,
            4.5257,
            4.5647,
            5.3212,
            4.6619,
            4.6052,
            4.6253,
            4.6386,
            4.6694,
            4.6885,
            4.7099,
            4.7252,
            4.748,
            4.7721,
            4.7822,
            4.8135,
            4.8351,
            4.8617,
            4.8724,
            4.9017,
            4.9388,
            4.9989,
            4.9743,
            4.9729,
            4.9908,
            5.0067,
            5.0305,
            5.0585,
            5.0778,
            5.0904,
            5.1145,
            5.1259,
            5.1354,
            5.1669,
            5.1829,
            5.2263,
            5.2275,
            5.2529,
            5.2705,
            5.2914,
            5.2997,
            5.3265,
            5.3511,
            5.3638,
            5.391,
            5.4131,
            5.4277,
            5.4443,
            5.4713,
            5.4828,
            5.5178,
            5.5192,
            5.5296,
            5.5602,
            5.5687,
            5.5965,
            5.6112,
            5.6293,
            5.667,
            5.6743,
            5.6723,
            5.7201,
            5.7285,
            5.7455,
            5.7771,
            5.781,
            5.8097,
            5.8202,
            5.8283,
            5.8705,
            5.8764,
            5.896,
            5.9211,
            5.9296,
            5.9439,
            5.9662,
            5.9797,
            6.0185,
            6.0272,
            6.0361,
            6.0481,
            6.0629,
            6.0912,
            6.105,
            6.1317,
            6.1482,
            6.1826,
            6.1857,
            6.2022,
            6.2243,
            6.2406,
            6.267,
            6.2687,
            6.2879,
            6.2883,
            6.3318,
            6.3456,
            6.3627,
            6.3774,
            6.4017,
            6.4285,
            6.43,
            6.4387,
            6.461,
            6.4818,
            6.5174,
            6.5644,
            6.5932,
            6.6218,
            6.6087,
            6.6201,
            6.6173,
            6.6391,
            6.6502,
            6.6608,
            6.6652,
            6.6928,
            6.7262,
            6.7393,
            23.404,
            23.19,
            23.418,
            23.345,
            23.204,
            23.6,
            23.381,
            23.533,
            23.345,
            23.435,
            23.265,
            23.364,
            23.272,
            23.568,
            23.533,
            23.526,
            23.412,
            23.196,
            23.414,
            23.434,
            23.46,
            23.42,
            23.491,
            23.608,
            23.322,
            23.482,
            23.68,
            23.171,
            23.572,
            23.577,
            23.34,
            23.582,
            23.618,
            23.423,
            23.31,
            23.488,
            6.7981,
            6.815,
            6.8473,
            6.8344,
            6.8604,
            23.634,
            23.746,
            23.729,
            23.783,
            23.692,
            23.964,
            23.848,
            23.851,
            23.676,
            23.907,
            23.993,
            24.042,
            23.944,
            23.957,
            23.941,
            23.813,
            23.938,
            23.878,
            23.872,
            23.971,
            23.881,
            23.87,
            23.95,
            23.888,
            23.709,
            24.092,
            23.907,
            23.812,
            23.919,
            23.742,
            24.008,
            23.889,
            23.868,
            24.104,
            24.113,
            24.039,
            23.987,
            23.79,
            23.945,
            24.005,
            23.805,
            23.95,
            23.991,
            24.026,
            23.873,
            24.047,
            24.061,
            24.068,
            24.107,
            23.897,
            24.16,
            24.275,
            24.288,
            23.946,
            23.941,
            24.069,
            24.009,
            24.144,
            24.009,
            24.135,
            24.086,
            24.052,
            24.182,
            24.152,
            24.115,
            24.11,
            24.033,
            24.17,
            23.983,
            24.119,
            24.013,
            24.133,
            24.116,
            24.283,
            24.38,
            24.383,
            24.151,
            24.238,
            24.256,
            24.031,
            24.227,
            24.156,
            24.409,
            24.102,
            24.184,
            7.0049,
            7.0112,
            7.0381,
            7.0388,
            7.0564,
            7.1029,
            7.0909,
            7.1149,
            7.1217,
            7.1499,
            7.166,
            7.1827,
            7.2073,
            7.2335,
            7.2373,
            7.2639,
            7.2652,
            7.2984,
            6.1623,
            5.1915,
            5.208,
            5.2377,
            5.2525,
            5.2839,
            5.3065,
            5.3368,
            5.3552,
            5.3708,
            5.3958,
            5.4404,
            5.4514,
            5.4605,
            5.4957,
            5.523,
            5.5201,
            5.5705,
            5.5994,
            5.606,
            5.6235,
            5.6527,
            5.6691,
            5.6998,
            5.7202,
            5.7463,
            5.7696,
            5.797,
            5.8175,
            5.8309,
            5.856,
            5.8888,
            5.9004,
            5.9286,
            5.9449,
            5.9899,
            6.0067,
            6.0142,
            6.0477,
            6.058,
            6.1014,
            6.1037,
            6.1174,
            6.174,
            6.1901,
            6.2041,
            6.2351,
            6.2378,
            6.269,
            6.296,
            6.3211,
            6.3563,
            6.3833,
            6.3718,
            6.4194,
            6.4281,
            6.4444,
            6.4709,
            6.5081,
            6.5346,
            6.5426,
            6.5839,
            6.5963,
            6.605,
            6.646,
            6.6667,
            6.6775,
            6.6983,
            6.7504,
            6.7576,
            6.772,
            6.8147,
            6.8082,
            6.84,
            6.8821,
            6.8865,
            6.9124,
            6.9299,
            6.9775,
            6.9858,
            7.0135,
            7.0326,
            7.0695,
            6.6017,
            5.0366,
            5.0867,
            5.1,
            5.1576,
            5.1884,
            5.2192,
            5.2633,
            5.2929,
            5.3267,
            5.3669,
            5.4074,
            5.4325,
            5.4731,
            5.522,
            5.5401,
            5.5906,
            5.6437,
            5.6963,
            5.7236,
            5.7733,
            5.8162,
            5.8574,
            5.9189,
            5.9564,
            6.0205,
            6.0773,
            6.1206,
            6.1819,
            6.2268,
            6.2866,
            6.3485,
            6.3928,
            6.4737,
            6.5184,
            6.5955,
            6.6493,
            6.7367,
            6.7938,
            6.8567,
            6.9846,
            7.0217,
            7.0989,
            7.1973,
            7.2972,
            7.3587,
            7.4683,
            7.5655,
            7.6487,
            7.7915,
            7.8706,
            8.0026,
            8.1421,
            8.2608,
            8.3943,
            8.5635,
            8.7238,
            8.9137,
            9.0583,
            9.2785,
            9.4462,
            9.6535,
            9.9175,
            10.153,
            10.342,
            10.682,
            10.965,
            11.283,
            11.573,
            11.965,
            12.284,
            12.706,
            13.181,
            13.631,
            14.088,
            14.752,
            15.263,
            15.9,
            16.539,
            17.383,
            18.12,
            19.193,
            20.167,
            21.183,
            22.311,
            23.652,
            24.954,
            26.37,
            27.715,
            30.098,
            31.5,
            34.449,
            35.427,
            37.353,
            41.114,
            42.201,
            45.106,
            46.909,
            48.391,
            51.436,
            51.9,
            53.906,
            55.6,
            55.985,
            60.722,
            57.847,
            63.78,
            60.074,
            61.119,
            62.211,
            64.214,
            60.496,
            62.097,
            60.405,
            61.638,
            66.413
          ]
        ]
      }
    },
    "004": {
      "common": null,
      "data": {
        "heads": [
          "EN",
          "DATA",
          "DATA-ERR"
        ],
        "units": [
          "EV",
          "B",
          "B"
        ],
        "data": [
          [
            494.92,
            492.48,
            490.05,
            487.65,
            485.26,
            482.89,
            480.53,
            478.2,
            475.88,
            473.57,
            471.29,
            469.02,
            466.76,
            464.52,
            462.3,
            460.1,
            457.91,
            455.73,
            453.58,
            451.43,
            449.3,
            447.19,
            445.09,
            443.01,
            440.94,
            438.89,
            436.85,
            434.82,
            432.81,
            430.81,
            428.83,
            426.85,
            424.9,
            422.95,
            421.02,
            419.11,
            418.05,
            417.84,
            417.62,
            417.41,
            417.2,
            416.99,
            416.78,
            416.57,
            416.36,
            416.15,
            415.94,
            415.73,
            415.52,
            415.31,
            415.1,
            414.89,
            414.68,
            414.48,
            414.27,
            414.06,
            413.85,
            413.64,
            413.43,
            413.23,
            413.02,
            412.81,
            412.6,
            412.4,
            412.19,
            411.98,
            411.77,
            411.57,
            411.36,
            411.15,
            410.95,
            410.74,
            410.43,
            410.02,
            409.61,
            409.2,
            408.79,
            408.38,
            407.98,
            407.57,
            405.54,
            401.93,
            398.37,
            394.85,
            391.38,
            387.95,
            384.57,
            381.23,
            377.94,
            374.69,
            371.48,
            368.31,
            365.18,
            362.1,
            359.05,
            356.04,
            353.06,
            350.13,
            347.23,
            344.36,
            341.54,
            338.74,
            335.98,
            333.26,
            330.56,
            327.9,
            325.28,
            322.68,
            320.11,
            317.58,
            315.07,
            312.6,
            310.15,
            307.73,
            305.34,
            302.98,
            300.64,
            298.34,
            296.05,
            293.8,
            291.57,
            289.36,
            287.18,
            285.03,
            282.9,
            280.79,
            278.71,
            276.65,
            274.61,
            272.59,
            270.6,
            268.63,
            266.68,
            264.75,
            262.84,
            260.95,
            259.09,
            257.24,
            255.41,
            253.6,
            251.81,
            250.04,
            248.29,
            246.56,
            244.84,
            243.15,
            241.47,
            239.81,
            238.16,
            236.53,
            234.92,
            233.32,
            231.75,
            230.18,
            228.63,
            227.1,
            225.59,
            224.09,
            222.6,
            221.13,
            219.67,
            218.23,
            216.8,
            215.38,
            213.98,
            212.6,
            211.22,
            209.86,
            208.51,
            207.18,
            205.86,
            204.55,
            203.25,
            201.97,
            200.7,
            199.44,
            198.19,
            196.95,
            195.73,
            194.51,
            193.31,
            192.12,
            190.94,
            189.77,
            188.61,
            187.46,
            186.32,
            185.2,
            184.08,
            182.97,
            181.87,
            180.79,
            179.71,
            178.64,
            177.58,
            176.53,
            175.49,
            174.46,
            173.44,
            172.43,
            171.42,
            170.43,
            169.44,
            168.46,
            167.49,
            166.53,
            165.58,
            164.64,
            163.7,
            162.77,
            161.85,
            160.94,
            160.03,
            159.13,
            158.24,
            157.36,
            156.48,
            155.62,
            154.76,
            153.9,
            153.05,
            152.22,
            151.38,
            150.56,
            149.74,
            148.92,
            148.12,
            147.32,
            146.53,
            145.74,
            144.96,
            144.18,
            143.42,
            142.65,
            141.9,
            141.15,
            140.41,
            139.67,
            138.94,
            138.21,
            137.49,
            136.77,
            136.06,
            135.36,
            134.66,
            133.97,
            133.28,
            132.6,
            131.92,
            131.25,
            130.58,
            129.92,
            129.26,
            128.61,
            127.96,
            127.32,
            126.68,
            126.05,
            125.42,
            124.8,
            124.18,
            123.57,
            122.96,
            122.35,
            121.75,
            121.16,
            120.56,
            119.98,
            119.39,
            118.81,
            118.24,
            117.67,
            117.1,
            116.54,
            115.98,
            115.43,
            114.88,
            114.33,
            113.79,
            113.25,
            112.72,
            112.18,
            111.66,
            111.13,
            110.61,
            110.1,
            109.58,
            109.08,
            108.57,
            108.07,
            107.57,
            107.07,
            106.58,
            106.09,
            105.61,
            105.13,
            104.65,
            104.17,
            103.7,
            103.23,
            102.77,
            102.2,
            101.31,
            100.41,
            99.522,
            98.644,
            97.777,
            96.921,
            96.077,
            95.244,
            94.421,
            93.609,
            92.808,
            92.017,
            91.235,
            90.464,
            89.703,
            88.951,
            88.208,
            87.475,
            86.751,
            86.036,
            85.329,
            84.631,
            83.942,
            83.261,
            82.589,
            81.924,
            81.268,
            80.619,
            79.978,
            79.345,
            78.719,
            78.101,
            77.49,
            76.886,
            76.289,
            75.699,
            75.116,
            74.539,
            73.969,
            73.406,
            72.849,
            72.298,
            71.754,
            71.215,
            70.683,
            70.157,
            69.636,
            69.122,
            68.613,
            68.109,
            67.611,
            67.119,
            66.632,
            66.15,
            65.673,
            65.202,
            64.735,
            64.274,
            63.818,
            63.366,
            62.919,
            62.477,
            62.039,
            61.606,
            61.178,
            60.754,
            60.334,
            59.919,
            59.508,
            59.101,
            58.699,
            58.3,
            57.906,
            57.515,
            57.129,
            56.746,
            56.367,
            55.992,
            55.621,
            55.253,
            54.889,
            54.529,
            54.172,
            53.819,
            53.469
          ],
          [
            27.77,
            23.049,
            27.043,
            51.168,
            13.677,
            7.1135,
            29.967,
            23.224,
            29.342,
            37.617,
            20.166,
            38.934,
            14.284,
            44.107,
            -0.82606,
            9.493,
            5.4352,
            18.889,
            15.667,
            24.23,
            31.157,
            15.565,
            11.659,
            40.73,
            24.133,
            55.008,
            15.481,
            12.993,
            33.87,
            23.639,
            -3.2674,
            0.69558,
            25.249,
            18.201,
            35.541,
            26.425,
            67.43,
            -6.4323,
            74.135,
            -25.693,
            -9.6264,
            -84.025,
            -51.954,
            73.024,
            73.694,
            101.02,
            155.72,
            119.27,
            83.022,
            89.028,
            98.708,
            45.643,
            39.145,
            -15.696,
            11.811,
            -24.336,
            -49.59,
            125.53,
            -5.073,
            -24.808,
            -64.056,
            25.344,
            30.93,
            42.995,
            -7.7882,
            8.9376,
            33.759,
            -44.941,
            33.862,
            37.985,
            14.1,
            59.501,
            -5.7485,
            0.29728,
            69.263,
            114.0,
            23.125,
            3.6039,
            -1.3483,
            7.1606,
            8.434,
            17.769,
            47.264,
            40.402,
            21.913,
            24.223,
            17.545,
            11.419,
            9.2855,
            23.834,
            4.9643,
            15.534,
            34.474,
            30.522,
            20.741,
            16.212,
            19.054,
            18.605,
            21.388,
            6.9862,
            11.132,
            30.02,
            10.673,
            31.057,
            25.36,
            21.044,
            23.897,
            35.507,
            36.427,
            9.2537,
            28.488,
            -0.71812,
            20.074,
            44.587,
            31.064,
            42.661,
            19.871,
            21.443,
            9.9114,
            22.675,
            26.199,
            11.608,
            29.939,
            9.6718,
            29.152,
            6.7468,
            11.023,
            3.6183,
            21.233,
            27.128,
            28.695,
            39.003,
            26.75,
            28.7,
            28.496,
            46.937,
            60.665,
            43.936,
            37.64,
            30.325,
            43.2,
            51.99,
            19.057,
            25.918,
            50.872,
            49.717,
            41.253,
            16.11,
            31.527,
            51.52,
            44.233,
            49.25,
            32.646,
            46.243,
            50.086,
            59.758,
            74.23,
            61.741,
            106.18,
            109.41,
            101.42,
            89.955,
            97.634,
            159.23,
            156.8,
            160.74,
            207.05,
            206.17,
            232.48,
            254.88,
            278.28,
            276.33,
            296.36,
            302.18,
            248.13,
            264.15,
            229.92,
            213.39,
            218.3,
            152.82,
            138.74,
            145.97,
            109.41,
            109.44,
            78.984,
            97.733,
            93.189,
            82.024,
            66.759,
            79.373,
            64.615,
            60.724,
            43.073,
            59.654,
            45.038,
            19.412,
            54.094,
            16.127,
            37.172,
            27.689,
            61.511,
            57.387,
            23.125,
            35.947,
            19.065,
            31.692,
            46.033,
            51.241,
            31.417,
            27.546,
            37.153,
            54.395,
            27.36,
            11.832,
            14.289,
            38.695,
            29.363,
            5.2546,
            41.316,
            30.734,
            39.72,
            25.892,
            52.074,
            25.128,
            34.057,
            54.287,
            30.373,
            -3.9911,
            11.247,
            22.723,
            4.0738,
            41.039,
            22.573,
            21.261,
            15.35,
            45.23,
            56.76,
            29.104,
            12.896,
            11.429,
            23.197,
            28.487,
            12.001,
            42.655,
            23.852,
            23.565,
            33.003,
            24.919,
            9.9139,
            43.482,
            24.768,
            22.502,
            57.435,
            38.374,
            46.712,
            16.415,
            30.846,
            12.0,
            31.406,
            39.341,
            39.362,
            27.413,
            14.246,
            34.19,
            29.136,
            7.5996,
            14.745,
            45.903,
            6.5366,
            38.665,
            42.367,
            20.221,
            46.285,
            24.529,
            -6.8842,
            31.496,
            24.34,
            41.26,
            13.76,
            25.658,
            27.764,
            11.776,
            2.9285,
            21.37,
            -2.801,
            -10.474,
            29.632,
            41.064,
            4.2897,
            32.497,
            18.997,
            49.851,
            25.02,
            8.4205,
            14.049,
            47.226,
            25.249,
            32.164,
            34.481,
            55.972,
            24.767,
            7.6528,
            37.439,
            10.57,
            31.917,
            24.397,
            2.1325,
            25.995,
            22.506,
            20.543,
            22.788,
            33.151,
            25.273,
            9.5754,
            26.619,
            19.35,
            8.1241,
            19.02,
            17.307,
            6.904,
            30.817,
            7.3877,
            15.115,
            16.511,
            -1.2716,
            24.778,
            21.31,
            7.9144,
            23.096,
            -10.025,
            10.363,
            14.52,
            51.391,
            37.239,
            5.1933,
            20.471,
            16.668,
            22.626,
            8.8041,
            26.871,
            21.754,
            46.226,
            11.906,
            6.0933,
            8.2393,
            15.213,
            9.6701,
            16.122,
            29.73,
            -0.22342,
            39.432,
            45.823,
            42.868,
            27.257,
            35.018,
            14.165,
            48.688,
            21.817,
            -7.5802,
            -11.287,
            23.068,
            27.606,
            6.1866,
            -1.2863,
            25.054,
            26.877,
            -0.52609,
            21.656,
            12.087,
            27.097,
            4.2668,
            22.11,
            46.774,
            19.371,
            40.226,
            14.009,
            6.2504,
            23.78,
            31.747,
            4.9902,
            39.968,
            22.047,
            28.745,
            16.879,
            34.686,
            39.513,
            21.314
          ],
          [
            16.044,
            16.006,
            16.038,
            15.993,
            16.034,
            16.059,
            16.082,
            16.106,
            16.094,
            16.104,
            16.13,
            16.153,
            16.168,
            16.178,
            16.225,
            16.191,
            16.228,
            16.274,
            16.285,
            16.325,
            16.359,
            16.366,
            16.37,
            16.349,
            16.385,
            16.359,
            16.347,
            16.379,
            16.353,
            16.378,
            16.395,
            16.365,
            16.38,
            16.401,
            16.428,
            16.435,
            49.311,
            49.332,
            49.284,
            49.32,
            49.469,
            49.339,
            49.264,
            49.385,
            49.372,
            49.275,
            49.298,
            49.378,
            49.335,
            49.534,
            49.333,
            49.315,
            49.221,
            49.209,
            49.192,
            49.264,
            49.339,
            49.3,
            49.371,
            49.346,
            49.243,
            49.206,
            49.461,
            49.223,
            49.214,
            49.273,
            49.365,
            49.46,
            49.426,
            49.44,
            49.499,
            49.489,
            49.497,
            35.03,
            34.901,
            35.01,
            34.876,
            35.0,
            34.844,
            34.897,
            11.644,
            11.681,
            11.71,
            11.718,
            11.741,
            11.77,
            11.766,
            11.792,
            11.818,
            11.829,
            11.858,
            11.865,
            11.877,
            11.907,
            11.931,
            11.956,
            11.967,
            12.021,
            12.021,
            12.041,
            12.069,
            12.071,
            12.087,
            12.101,
            12.122,
            12.115,
            12.152,
            12.181,
            12.186,
            12.204,
            12.217,
            12.255,
            12.247,
            12.269,
            12.314,
            12.328,
            12.323,
            12.355,
            12.371,
            12.394,
            12.419,
            12.445,
            12.455,
            12.469,
            12.535,
            12.539,
            12.534,
            12.55,
            12.578,
            12.581,
            12.591,
            12.6,
            12.64,
            12.668,
            12.678,
            12.692,
            12.724,
            12.741,
            12.758,
            12.765,
            12.802,
            12.817,
            12.841,
            12.865,
            12.872,
            12.896,
            12.901,
            12.926,
            12.943,
            12.97,
            12.999,
            13.024,
            13.098,
            13.137,
            13.073,
            13.109,
            13.195,
            13.21,
            13.227,
            13.235,
            13.225,
            13.223,
            13.25,
            13.288,
            13.277,
            13.295,
            13.344,
            13.404,
            13.442,
            13.457,
            13.48,
            13.502,
            13.523,
            13.553,
            13.576,
            13.549,
            13.547,
            13.559,
            13.587,
            13.592,
            13.538,
            13.52,
            13.585,
            13.617,
            13.629,
            13.638,
            13.669,
            13.672,
            13.691,
            13.711,
            13.713,
            13.734,
            13.742,
            13.755,
            13.787,
            13.815,
            13.842,
            13.837,
            13.792,
            13.805,
            13.86,
            13.863,
            13.908,
            13.934,
            13.947,
            13.998,
            13.991,
            13.986,
            14.019,
            14.04,
            14.047,
            14.062,
            14.08,
            14.103,
            14.118,
            14.143,
            14.151,
            14.172,
            14.192,
            14.216,
            14.244,
            14.253,
            14.264,
            14.289,
            14.301,
            14.324,
            14.321,
            14.337,
            14.354,
            14.363,
            14.378,
            14.403,
            14.437,
            14.427,
            14.465,
            14.453,
            14.474,
            14.49,
            14.537,
            14.549,
            14.553,
            14.578,
            14.576,
            14.588,
            14.612,
            14.629,
            14.642,
            14.665,
            14.696,
            14.709,
            14.723,
            14.722,
            14.768,
            14.744,
            14.773,
            14.801,
            14.857,
            14.836,
            14.808,
            14.85,
            14.861,
            14.925,
            14.938,
            14.975,
            15.002,
            15.013,
            15.054,
            15.072,
            15.092,
            15.11,
            15.145,
            15.151,
            15.185,
            15.202,
            15.231,
            15.253,
            15.275,
            15.258,
            15.252,
            15.275,
            15.299,
            15.35,
            15.383,
            15.404,
            15.402,
            15.419,
            15.43,
            15.471,
            15.487,
            15.518,
            15.54,
            15.542,
            15.562,
            15.607,
            15.605,
            15.601,
            15.624,
            15.639,
            15.692,
            15.7,
            15.739,
            13.389,
            11.16,
            11.193,
            11.221,
            11.233,
            11.22,
            11.288,
            11.306,
            11.339,
            11.373,
            11.388,
            11.406,
            11.456,
            11.476,
            11.501,
            11.534,
            11.555,
            11.571,
            11.608,
            11.625,
            11.67,
            11.716,
            11.713,
            11.732,
            11.769,
            11.781,
            11.799,
            11.838,
            11.873,
            11.881,
            11.931,
            11.952,
            11.979,
            12.02,
            12.054,
            12.048,
            12.069,
            12.114,
            12.136,
            12.153,
            12.197,
            12.222,
            12.247,
            12.271,
            12.303,
            12.322,
            12.349,
            12.374,
            12.399,
            12.427,
            12.46,
            12.479,
            12.505,
            12.534,
            12.557,
            12.563,
            12.622,
            12.635,
            12.679,
            12.717,
            12.749,
            12.77,
            12.774,
            12.8,
            12.825,
            12.851,
            12.899,
            12.907,
            12.943,
            12.977,
            12.992,
            13.028,
            13.052,
            13.074,
            13.115,
            13.157,
            13.17,
            13.191,
            13.219,
            13.248,
            13.266,
            13.302,
            13.334,
            13.36,
            13.386,
            13.416
          ]
        ]
      }
    }
  },
  "experimental_conditions": {
    "001": {
      "0": {
        "detector": [
          {
            "x4_code": "(GLASD)",
            "free_txt": [
              " 6Li glass scintillator."
            ]
          }
        ],
        "err-analys": [
          {
            "x4_code": "(DATA-ERR)",
            "free_txt": [
              " Absolute uncertainty"
            ]
          }
        ],
        "facility": [
          {
            "x4_code": "(LINAC,1USAORL)",
            "free_txt": [
              " ORELA"
            ]
          }
        ],
        "inc-source": [
          {
            "x4_code": "(EVAP)",
            "free_txt": [
              " H2O-moderated tantalum target."
            ]
          }
        ],
        "method": [
          {
            "x4_code": "(TOF)",
            "free_txt": [
              " 17.890m Flight Path"
            ]
          }
        ],
        "status": [
          {
            "x4_code": "(TABLE)",
            "free_txt": [
              " Data produced from J.Harvey files by D.Wiarda."
            ]
          }
        ]
      }
    },
    "002": {
      "0": {
        "correction": [
          {
            "x4_code": null,
            "free_txt": [
              "Corrected for background and deadtime."
            ]
          }
        ],
        "sample": [
          {
            "x4_code": null,
            "free_txt": [
              "NiO sample, 95.35% enriched in 59Ni.",
              "Sample thickness 9.099E-04 atoms/b (1/N=1099 b/atom)."
            ]
          }
        ]
      }
    },
    "003": {
      "0": {
        "correction": [
          {
            "x4_code": null,
            "free_txt": [
              "Corrected for deadtime and background."
            ]
          }
        ],
        "sample": [
          {
            "x4_code": null,
            "free_txt": [
              "9.6-mg metallic powder, 95% 59Ni.",
              "Sample thickness 0.00088 or 0.00087 atoms/b (1/N=1141",
              " or 1152 b/atom)."
            ]
          }
        ]
      }
    },
    "004": {
      "0": {
        "sample": [
          {
            "x4_code": null,
            "free_txt": [
              "Sample enriched to 95% 59Ni; sample thickness 1.811E-4",
              " atoms/b (1/N=5523 b/atom)."
            ]
          }
        ]
      }
    }
  }
}