{
  "entry": "23750",
  "last_updated": "2023-03-31",
  "number_of_revisions": "1",
  "histories": [
    {
      "x4_code": "(20220624R)",
      "free_txt": [
        " On. Received by email from Guinyun Kim."
      ]
    },
    {
      "x4_code": "(20220624C)",
      "free_txt": [
        " On"
      ]
    }
  ],
  "bib_record": {
    "title": "Measurements of neutron capture cross-sections of 161Dy and 163Dy between 0.003 eV and 10 keV using a total energy absorption detector",
    "authors": [
      {
        "name": "G.N.Kim"
      },
      {
        "name": "Y.S.Lee"
      },
      {
        "name": "I.S.Ko"
      },
      {
        "name": "M.H.Cho"
      },
      {
        "name": "W.Namkung"
      },
      {
        "name": "T.I.Ro"
      },
      {
        "name": "Y.K.Min"
      },
      {
        "name": "S.Y.Lee"
      },
      {
        "name": "S.Yamamoto"
      },
      {
        "name": "K.Kobayashi"
      },
      {
        "name": "Y.Fujita"
      }
    ],
    "institutes": [
      {
        "x4_code": "(3KORKOR)",
        "free_txt": [
          " Dong-A University, Busan"
        ]
      },
      {
        "x4_code": "(3KORKNU)",
        "free_txt": ""
      },
      {
        "x4_code": "(3KORPUE)",
        "free_txt": ""
      },
      {
        "x4_code": "(2JPNKTO)",
        "free_txt": ""
      }
    ],
    "references": [
      {
        "x4_code": "(C,2002BRUSS,,613,2002)",
        "free_txt": [],
        "publication_year": "2002",
        "pointer": "0"
      },
      {
        "x4_code": "((S,ISINN-10,283,2003)=(S,JINR-E3-2003-10,2003))",
        "free_txt": [],
        "publication_year": "2003",
        "pointer": "0"
      }
    ],
    "facilities": [
      {
        "x4_code": "(LINAC,2JPNKTO)",
        "free_txt": [
          " KURRI 46 MeV electron linac"
        ],
        "pointer": "0",
        "facility_type": "(LINAC)",
        "institute": "(2JPNKTO)"
      }
    ]
  },
  "reactions": {
    "002": {
      "0": {
        "x4_code": "(66-DY-161(N,G)66-DY-162,,SIG,,TTA)",
        "children": [
          {
            "code": [
              "66-DY-161",
              [
                "N,G"
              ],
              "66-DY-162,,SIG,,TTA"
            ],
            "type": null,
            "target": "66-DY-161",
            "process": "N,G",
            "sf49": "66-DY-162,,SIG,,TTA",
            "sf4": "66-DY-162",
            "sf5": null,
            "sf6": "SIG",
            "sf7": null,
            "sf8": "TTA",
            "sf9": null
          }
        ],
        "type": null,
        "free_text": ""
      }
    },
    "003": {
      "0": {
        "x4_code": "(66-DY-161(N,G)66-DY-162,,SIG,,TTA)",
        "children": [
          {
            "code": [
              "66-DY-161",
              [
                "N,G"
              ],
              "66-DY-162,,SIG,,TTA"
            ],
            "type": null,
            "target": "66-DY-161",
            "process": "N,G",
            "sf49": "66-DY-162,,SIG,,TTA",
            "sf4": "66-DY-162",
            "sf5": null,
            "sf6": "SIG",
            "sf7": null,
            "sf8": "TTA",
            "sf9": null
          }
        ],
        "type": null,
        "free_text": ""
      }
    },
    "004": {
      "0": {
        "x4_code": "(66-DY-163(N,G)66-DY-164,,SIG,,TTA)",
        "children": [
          {
            "code": [
              "66-DY-163",
              [
                "N,G"
              ],
              "66-DY-164,,SIG,,TTA"
            ],
            "type": null,
            "target": "66-DY-163",
            "process": "N,G",
            "sf49": "66-DY-164,,SIG,,TTA",
            "sf4": "66-DY-164",
            "sf5": null,
            "sf6": "SIG",
            "sf7": null,
            "sf8": "TTA",
            "sf9": null
          }
        ],
        "type": null,
        "free_text": ""
      }
    },
    "005": {
      "0": {
        "x4_code": "(66-DY-163(N,G)66-DY-164,,SIG,,TTA)",
        "children": [
          {
            "code": [
              "66-DY-163",
              [
                "N,G"
              ],
              "66-DY-164,,SIG,,TTA"
            ],
            "type": null,
            "target": "66-DY-163",
            "process": "N,G",
            "sf49": "66-DY-164,,SIG,,TTA",
            "sf4": "66-DY-164",
            "sf5": null,
            "sf6": "SIG",
            "sf7": null,
            "sf8": "TTA",
            "sf9": null
          }
        ],
        "type": null,
        "free_text": ""
      }
    }
  },
  "data_tables": {
    "001": {
      "common": null
    },
    "002": {
      "common": {
        "heads": [
          "THICKNESS"
        ],
        "units": [
          "ATOMS/B"
        ],
        "data": [
          [
            0.000636
          ]
        ]
      },
      "data": {
        "heads": [
          "EN",
          "DATA"
        ],
        "units": [
          "EV",
          "B"
        ],
        "data": [
          [
            0.00317,
            0.00323,
            0.00329,
            0.00335,
            0.00341,
            0.00347,
            0.00353,
            0.0036,
            0.00366,
            0.00373,
            0.0038,
            0.00387,
            0.00394,
            0.00401,
            0.00409,
            0.00416,
            0.00424,
            0.00432,
            0.00439,
            0.00448,
            0.00456,
            0.00464,
            0.00473,
            0.00481,
            0.0049,
            0.00499,
            0.00508,
            0.00518,
            0.00527,
            0.00537,
            0.00547,
            0.00557,
            0.00567,
            0.00577,
            0.00588,
            0.00599,
            0.0061,
            0.00621,
            0.00632,
            0.00644,
            0.00656,
            0.00668,
            0.0068,
            0.00692,
            0.00705,
            0.00718,
            0.00731,
            0.00745,
            0.00758,
            0.00772,
            0.00786,
            0.00801,
            0.00815,
            0.0083,
            0.00846,
            0.00861,
            0.00877,
            0.00893,
            0.00909,
            0.00926,
            0.00943,
            0.0096,
            0.00978,
            0.00996,
            0.01014,
            0.01033,
            0.01052,
            0.01071,
            0.01091,
            0.01111,
            0.01131,
            0.01152,
            0.01173,
            0.01195,
            0.01217,
            0.01239,
            0.01262,
            0.01285,
            0.01308,
            0.01332,
            0.01357,
            0.01382,
            0.01407,
            0.01433,
            0.01459,
            0.01486,
            0.01513,
            0.01541,
            0.01569,
            0.01598,
            0.01627,
            0.01657,
            0.01688,
            0.01719,
            0.0175,
            0.01782,
            0.01815,
            0.01848,
            0.01882,
            0.01917,
            0.01952,
            0.01988,
            0.02024,
            0.02061,
            0.02099,
            0.02138,
            0.02177,
            0.02217,
            0.02257,
            0.02299,
            0.02341,
            0.02384,
            0.02428,
            0.02472,
            0.0253,
            0.02564,
            0.02611,
            0.02659,
            0.02708,
            0.02757,
            0.02808,
            0.02859,
            0.02912,
            0.02965,
            0.0302,
            0.03075,
            0.03131,
            0.03189,
            0.03247,
            0.03307,
            0.03368,
            0.03429,
            0.03492,
            0.03556,
            0.03622,
            0.03688,
            0.03756,
            0.03825,
            0.03895,
            0.03966,
            0.04039,
            0.04113,
            0.04189,
            0.04266,
            0.04344,
            0.04424,
            0.04505,
            0.04587,
            0.04672,
            0.04757,
            0.04845,
            0.04933,
            0.05024,
            0.05116,
            0.0521,
            0.05306,
            0.05403,
            0.05502,
            0.05603,
            0.05706,
            0.0581,
            0.05917,
            0.06026,
            0.06136,
            0.06249,
            0.06363,
            0.0648,
            0.06599,
            0.0672,
            0.06844,
            0.06969,
            0.07097,
            0.07227,
            0.0736,
            0.07495,
            0.07632,
            0.07772,
            0.07915,
            0.0806,
            0.08208,
            0.08359,
            0.08512,
            0.08668,
            0.08827,
            0.08989,
            0.09154,
            0.09322,
            0.09493,
            0.09667,
            0.09845,
            0.10025,
            0.10209,
            0.10397,
            0.10587,
            0.10782,
            0.10979,
            0.11181,
            0.11386,
            0.11595,
            0.11808,
            0.12024,
            0.12245,
            0.1247,
            0.12698,
            0.12931,
            0.13169,
            0.1341,
            0.13656,
            0.13907,
            0.14162,
            0.14422,
            0.14687,
            0.14956,
            0.1523,
            0.1551,
            0.15795,
            0.16084,
            0.16379,
            0.1668,
            0.16986,
            0.17298,
            0.17615,
            0.17938,
            0.18267,
            0.18603,
            0.18944,
            0.19291,
            0.19645,
            0.20006,
            0.20373,
            0.20747,
            0.21127,
            0.21515,
            0.2191,
            0.22312,
            0.22721,
            0.23138,
            0.23563,
            0.23995,
            0.24435,
            0.24884,
            0.2534,
            0.25805,
            0.26279,
            0.26761,
            0.27252,
            0.27752,
            0.28261,
            0.2878,
            0.29308,
            0.29845,
            0.30393,
            0.30951,
            0.31518,
            0.32097,
            0.32686,
            0.33285,
            0.33896,
            0.34518,
            0.35151,
            0.35796,
            0.36453,
            0.37122,
            0.37803,
            0.38497,
            0.39203,
            0.39922,
            0.40655,
            0.41401,
            0.4216,
            0.42934,
            0.43722,
            0.44524,
            0.45341,
            0.46173,
            0.4702,
            0.47883,
            0.48761,
            0.49656,
            0.50567,
            0.51495,
            0.5244,
            0.53402,
            0.54382,
            0.55379,
            0.56396,
            0.5743,
            0.58484,
            0.59557,
            0.6065,
            0.61763,
            0.62896,
            0.6405,
            0.65225,
            0.66422,
            0.67641,
            0.68882,
            0.70146,
            0.71433,
            0.72743,
            0.74078,
            0.75437,
            0.76821,
            0.78231,
            0.79666,
            0.81128,
            0.82616,
            0.84132,
            0.85676,
            0.87248,
            0.88849,
            0.90479,
            0.92139,
            0.9383,
            0.95551,
            0.97305,
            0.9909,
            1.0091,
            1.0276,
            1.0465,
            1.0657,
            1.0852,
            1.1051,
            1.1254,
            1.146,
            1.1671,
            1.1885,
            1.2103,
            1.2325,
            1.2551,
            1.2781,
            1.3016,
            1.3255,
            1.3498,
            1.3746,
            1.3998,
            1.4255,
            1.4516,
            1.4783,
            1.5054,
            1.533,
            1.5611,
            1.5898,
            1.6189,
            1.6486,
            1.6789,
            1.7097,
            1.7411,
            1.773,
            1.8055,
            1.8387,
            1.8724,
            1.9068,
            1.9417,
            1.9774,
            2.0137,
            2.0506,
            2.0882,
            2.1265,
            2.1656,
            2.2053,
            2.2458,
            2.287,
            2.3289,
            2.3717,
            2.4152,
            2.4595,
            2.5046,
            2.5506,
            2.5974,
            2.645,
            2.6935,
            2.743,
            2.7933,
            2.8445,
            2.8967,
            2.9499,
            3.004,
            3.0591,
            3.1153,
            3.1724,
            3.2306,
            3.2899,
            3.3503,
            3.4117,
            3.4743,
            3.5381,
            3.603,
            3.6691,
            3.7364,
            3.805,
            3.8748,
            3.9459,
            4.0183,
            4.092,
            4.1671,
            4.2436,
            4.3214,
            4.4007,
            4.4815,
            4.5637,
            4.6474,
            4.7327,
            4.8195,
            4.908,
            4.998,
            5.0897,
            5.1831,
            5.2782,
            5.375,
            5.4737,
            5.5741,
            5.6764,
            5.7805,
            5.8866,
            5.9946,
            6.1046,
            6.2166,
            6.3307,
            6.4468,
            6.5651,
            6.6856,
            6.8082,
            6.9331,
            7.0603,
            7.1899,
            7.3218,
            7.4562,
            7.593,
            7.7323,
            7.8741,
            8.0186,
            8.1657,
            8.3156,
            8.4682,
            8.6235,
            8.7818,
            8.9429,
            9.107,
            9.2741,
            9.4442,
            9.6175,
            9.794,
            9.9737
          ],
          [
            1644.5339,
            1743.0481,
            1767.2221,
            1713.5034,
            1595.7068,
            1556.5284,
            1587.5242,
            1653.6025,
            1646.5534,
            1677.3677,
            1412.5867,
            1513.4746,
            1656.5646,
            1503.3599,
            1558.7712,
            1543.7338,
            1600.6863,
            1504.0403,
            1516.1743,
            1502.9448,
            1398.2606,
            1623.8089,
            1474.148,
            1513.6213,
            1490.2234,
            1403.2493,
            1366.964,
            1334.7901,
            1389.6566,
            1353.1715,
            1412.2743,
            1358.4764,
            1280.3652,
            1308.2081,
            1365.7564,
            1312.509,
            1278.3199,
            1313.9612,
            1268.125,
            1259.3314,
            1272.4574,
            1246.7999,
            1252.0988,
            1247.8906,
            1210.0609,
            1210.9452,
            1201.946,
            1163.9959,
            1190.0163,
            1178.862,
            1176.7223,
            1149.7283,
            1168.39,
            1122.0004,
            1097.5979,
            1143.1182,
            1087.7262,
            1060.6317,
            1080.4155,
            1046.5556,
            1048.9855,
            1066.1812,
            1052.5748,
            1033.7408,
            1060.2998,
            1016.0385,
            994.0042,
            1004.5201,
            965.9603,
            959.6121,
            960.631,
            931.1497,
            926.0808,
            945.2283,
            921.2775,
            930.6681,
            907.0753,
            914.1046,
            894.6386,
            902.5306,
            883.0931,
            871.4446,
            855.9858,
            852.9978,
            836.7951,
            824.8145,
            826.947,
            829.5009,
            817.3119,
            815.9052,
            810.6402,
            794.0013,
            783.8473,
            787.3514,
            770.2529,
            760.3903,
            769.3902,
            750.2366,
            744.1219,
            737.9206,
            735.4598,
            722.0778,
            713.6186,
            704.8274,
            709.1118,
            705.1553,
            688.6733,
            693.005,
            676.7024,
            674.9272,
            663.5753,
            659.8645,
            659.9476,
            648.1666,
            644.6024,
            635.4955,
            630.9337,
            621.1833,
            618.7012,
            608.5156,
            605.8013,
            604.6869,
            597.581,
            596.8304,
            586.7118,
            578.9943,
            579.7993,
            569.8517,
            563.0932,
            557.5807,
            553.595,
            548.3996,
            547.7524,
            535.3471,
            531.5809,
            530.5638,
            527.6177,
            520.6618,
            514.9659,
            507.7342,
            509.7734,
            502.1196,
            495.3718,
            491.9669,
            488.8267,
            481.51,
            477.3154,
            473.581,
            468.7399,
            461.9819,
            460.7901,
            459.6123,
            453.3451,
            446.1389,
            447.6936,
            438.8004,
            434.2707,
            434.4691,
            427.0412,
            424.5126,
            421.3116,
            421.6208,
            412.3259,
            407.8212,
            402.8974,
            399.2255,
            395.2251,
            390.6538,
            391.5104,
            384.0888,
            378.1897,
            373.8811,
            371.7253,
            368.9782,
            364.9758,
            359.0863,
            355.3366,
            354.6878,
            349.858,
            343.1962,
            343.4004,
            337.0355,
            336.7753,
            333.8332,
            331.219,
            321.5386,
            321.4064,
            316.5499,
            313.6822,
            306.7958,
            309.748,
            301.9851,
            297.8715,
            296.083,
            291.7661,
            291.1706,
            287.5054,
            285.5249,
            282.2027,
            280.2016,
            278.1601,
            268.7408,
            266.5192,
            268.5191,
            258.6601,
            256.1404,
            254.856,
            252.0831,
            249.0535,
            249.5312,
            242.4338,
            241.92,
            238.3842,
            237.517,
            229.982,
            233.0711,
            225.3678,
            222.1773,
            219.4138,
            218.78,
            215.9376,
            208.4725,
            204.8748,
            209.21,
            205.0293,
            200.5764,
            192.2359,
            191.9312,
            196.325,
            188.7773,
            181.9034,
            185.5608,
            187.936,
            180.6528,
            183.2951,
            176.559,
            173.2008,
            161.6507,
            176.8176,
            173.3941,
            158.6518,
            159.9299,
            150.4098,
            149.5082,
            153.2187,
            149.8486,
            155.4131,
            152.4298,
            145.8539,
            139.0814,
            142.4966,
            138.3635,
            135.4578,
            133.0055,
            131.5973,
            131.4342,
            139.4219,
            132.2894,
            125.7688,
            120.5924,
            123.7029,
            109.6568,
            120.7486,
            117.7645,
            114.1682,
            108.8736,
            114.5983,
            105.4315,
            107.1864,
            105.0001,
            98.5189,
            104.4409,
            97.2705,
            102.812,
            96.5241,
            98.7399,
            94.2596,
            91.0392,
            89.615,
            96.4821,
            89.2314,
            86.1447,
            93.2972,
            87.4988,
            83.9856,
            86.9998,
            79.0992,
            79.4321,
            79.1959,
            72.2947,
            82.2877,
            74.257,
            78.538,
            75.8552,
            75.7367,
            71.0239,
            66.5839,
            73.9203,
            65.4207,
            66.4907,
            68.3843,
            65.663,
            65.4619,
            61.764,
            58.8242,
            60.9767,
            60.0414,
            60.3137,
            53.6805,
            55.175,
            63.4361,
            53.6074,
            54.6924,
            53.8021,
            52.476,
            52.099,
            50.3117,
            56.3734,
            57.362,
            53.8017,
            54.0664,
            52.1867,
            55.6891,
            52.7563,
            47.1253,
            52.0874,
            46.8646,
            47.3271,
            48.7776,
            46.8826,
            41.3885,
            48.1282,
            45.199,
            43.9258,
            44.7193,
            45.9416,
            45.0391,
            41.7011,
            45.846,
            37.1535,
            47.0425,
            41.2593,
            37.9833,
            33.8868,
            30.5757,
            26.8232,
            48.3451,
            71.1785,
            79.382,
            59.7176,
            43.5107,
            41.1841,
            41.1191,
            46.9693,
            51.7455,
            49.1464,
            56.6406,
            62.6295,
            66.7207,
            66.4085,
            74.6406,
            82.8357,
            88.3593,
            105.8108,
            121.0627,
            145.3545,
            184.9104,
            256.9171,
            387.2434,
            727.3257,
            1525.2441,
            2385.8394,
            2273.4451,
            1605.0286,
            913.6893,
            483.7337,
            302.0107,
            212.3445,
            170.7614,
            159.0148,
            152.3378,
            152.7389,
            173.0328,
            210.1596,
            277.8923,
            460.954,
            1043.0638,
            2807.0499,
            3389.5536,
            2420.2406,
            1599.107,
            881.4792,
            486.4145,
            348.3917,
            336.2215,
            501.5634,
            1193.5162,
            1907.7701,
            1567.9118,
            855.1221,
            378.2347,
            186.5081,
            115.0667,
            73.3985,
            50.5133,
            31.5748,
            15.7531,
            -13.7477,
            -91.4596,
            -256.2941,
            -62.2969,
            366.9176,
            147.8307,
            50.2143,
            24.5942,
            14.4133,
            16.1886,
            10.2679,
            10.9172,
            13.1727,
            10.6911,
            12.3684,
            11.2253,
            11.3265,
            13.444,
            15.9789,
            20.3063,
            36.081,
            114.5609,
            421.0722,
            463.1487,
            115.6854,
            35.5349,
            18.9445,
            12.0264,
            10.1799,
            10.5264,
            8.7735,
            8.8527,
            8.986,
            10.4675,
            7.1532,
            10.2291,
            12.4544
          ]
        ]
      }
    },
    "003": {
      "common": {
        "heads": [
          "THICKNESS"
        ],
        "units": [
          "ATOMS/B"
        ],
        "data": [
          [
            0.000636
          ]
        ]
      },
      "data": {
        "heads": [
          "EN",
          "DATA"
        ],
        "units": [
          "EV",
          "B"
        ],
        "data": [
          [
            10.157,
            10.343,
            10.533,
            10.726,
            10.923,
            11.123,
            11.327,
            11.535,
            11.747,
            11.962,
            12.182,
            12.405,
            12.633,
            12.865,
            13.101,
            13.341,
            13.586,
            13.835,
            14.089,
            14.348,
            14.611,
            14.879,
            15.152,
            15.43,
            15.713,
            16.001,
            16.295,
            16.594,
            16.898,
            17.208,
            17.524,
            17.846,
            18.173,
            18.507,
            18.846,
            19.192,
            19.544,
            19.903,
            20.268,
            20.64,
            21.018,
            21.404,
            21.797,
            22.197,
            22.604,
            23.019,
            23.441,
            23.871,
            24.309,
            24.755,
            25.209,
            25.672,
            26.143,
            26.623,
            27.111,
            27.609,
            28.115,
            28.631,
            29.156,
            29.691,
            30.236,
            30.791,
            31.356,
            31.931,
            32.517,
            33.114,
            33.721,
            34.34,
            34.97,
            35.612,
            36.265,
            36.931,
            37.608,
            38.298,
            39.001,
            39.716,
            40.445,
            41.187,
            41.943,
            42.713,
            43.496,
            44.294,
            45.107,
            45.935,
            46.778,
            47.636,
            48.51,
            49.4,
            50.306,
            51.229,
            52.169,
            53.126,
            54.101,
            55.094,
            56.105,
            57.134,
            58.182,
            59.25,
            60.337,
            61.444,
            62.572,
            63.72,
            64.889,
            66.079,
            67.292,
            68.527,
            69.784,
            71.064,
            72.368,
            73.696,
            75.048,
            76.425,
            77.827,
            79.255,
            80.71,
            82.19,
            83.698,
            85.234,
            86.798,
            88.391,
            90.012,
            91.664,
            93.346,
            95.059,
            96.803,
            98.579,
            100.39,
            102.23,
            104.11,
            106.02,
            107.96,
            109.94,
            111.96,
            114.01,
            116.1,
            118.24,
            120.4,
            122.61,
            124.86,
            127.15,
            129.49,
            131.86,
            134.28,
            136.75,
            139.26,
            141.81,
            144.41,
            147.06,
            149.76,
            152.51,
            155.31,
            158.16,
            161.06,
            164.01,
            167.02,
            170.09,
            173.21,
            176.39,
            179.62,
            182.92,
            186.27,
            189.69,
            193.17,
            196.72,
            200.33,
            204.0,
            207.75,
            211.56,
            215.44,
            219.39,
            223.42,
            227.52,
            231.69,
            235.94,
            240.27,
            244.68,
            249.17,
            253.74,
            258.4,
            263.14,
            267.97,
            272.88,
            277.89,
            282.99,
            288.18,
            293.47,
            298.85,
            304.34,
            309.92,
            315.61,
            321.4,
            327.29,
            333.3,
            339.41,
            345.64,
            351.98,
            358.44,
            365.02,
            371.72,
            378.54,
            385.48,
            392.55,
            399.76,
            407.09,
            414.56,
            422.17,
            429.91,
            437.8,
            445.83,
            454.01,
            462.35,
            470.83,
            479.47,
            488.26,
            497.22,
            506.35,
            515.64,
            525.1,
            534.73,
            544.54,
            554.53,
            564.71,
            575.07,
            585.62,
            596.37,
            607.31,
            618.45,
            629.8,
            641.36,
            653.12,
            665.11,
            677.31,
            689.74,
            702.39,
            715.28,
            728.4,
            741.77,
            755.38,
            769.24,
            783.35,
            797.73,
            812.36,
            827.27,
            842.45,
            857.91,
            873.65,
            889.68,
            906.0,
            922.62,
            939.55,
            956.79,
            974.35,
            992.22,
            1010.4,
            1029.0,
            1047.8,
            1067.1,
            1086.7,
            1106.6,
            1126.9,
            1147.6,
            1168.6,
            1190.1,
            1211.9,
            1234.1,
            1256.8,
            1279.8,
            1303.3,
            1327.2,
            1351.6,
            1376.4,
            1401.6,
            1427.4,
            1453.6,
            1480.2,
            1507.4,
            1535.0,
            1563.2,
            1591.9,
            1621.1,
            1650.8,
            1681.1,
            1712.0,
            1743.4,
            1775.4,
            1807.9,
            1841.1,
            1874.9,
            1909.3,
            1944.3,
            1980.0,
            2016.3,
            2053.3,
            2091.0,
            2129.4,
            2168.4,
            2208.2,
            2248.8,
            2290.0,
            2332.0,
            2374.8,
            2418.4,
            2462.8,
            2507.9,
            2554.0,
            2600.8,
            2648.5,
            2697.1,
            2746.6,
            2797.0,
            2848.3,
            2900.6,
            2953.8,
            3008.0,
            3063.2,
            3119.4,
            3176.7,
            3234.9,
            3294.3,
            3354.7,
            3416.3,
            3479.0,
            3542.8,
            3607.8,
            3674.0,
            3741.4,
            3810.1,
            3880.0,
            3951.2,
            4023.7,
            4097.5,
            4172.7,
            4249.2,
            4327.2,
            4406.6,
            4487.4,
            4569.8,
            4653.6,
            4739.0,
            4826.0,
            4914.5,
            5004.7,
            5096.5,
            5190.0,
            5382.2,
            5481.0,
            5581.5,
            5684.0,
            5788.2,
            5894.4,
            6002.6,
            6112.7,
            6339.1,
            6455.4,
            6573.9,
            6694.5,
            6817.3,
            7069.8,
            7199.5,
            7331.6,
            7603.1,
            7742.6,
            7884.7,
            8029.3,
            8326.7,
            8479.5,
            8793.5,
            8954.8,
            9119.1,
            9456.8,
            9630.4,
            9987.0,
            10170.0,
            10547.0,
            10740.0,
            11138.0,
            11342.0,
            11763.0,
            12198.0,
            12422.0,
            12882.0,
            13359.0,
            13604.0,
            14108.0,
            14630.0,
            15172.0,
            15734.0,
            16317.0,
            16616.0,
            17231.0,
            17870.0,
            18531.0,
            19218.0,
            20295.0,
            21047.0,
            21826.0,
            22634.0,
            23472.0,
            24788.0,
            25706.0,
            26658.0,
            28153.0,
            29195.0,
            30832.0,
            32561.0,
            33766.0,
            35659.0,
            37658.0,
            39770.0,
            41999.0,
            44354.0,
            46840.0,
            50374.0,
            53197.0,
            56180.0,
            60418.0,
            64976.0,
            69877.0,
            75148.0,
            80817.0,
            86914.0,
            95186.0,
            102370.0,
            112110.0,
            122780.0,
            136930.0,
            149960.0,
            167250.0,
            189950.0,
            211840.0
          ],
          [
            43.2082,
            112.7611,
            95.2834,
            108.9329,
            322.124,
            151.2357,
            25.0802,
            12.9216,
            11.0001,
            10.2156,
            10.8062,
            13.3517,
            31.6892,
            50.2613,
            20.9052,
            24.4758,
            35.1797,
            71.7717,
            425.6053,
            1084.8124,
            835.4468,
            146.5414,
            53.418,
            35.1678,
            31.1399,
            35.6191,
            102.3274,
            874.5959,
            1303.1618,
            286.2623,
            74.7256,
            58.22,
            227.4725,
            724.9194,
            760.5644,
            91.9235,
            28.8004,
            28.3571,
            34.2976,
            28.3029,
            9.9355,
            5.7885,
            4.6954,
            5.1113,
            4.2319,
            3.4695,
            4.9867,
            5.055,
            7.064,
            5.6472,
            87.9422,
            117.4304,
            9.4308,
            3.6399,
            4.2291,
            3.9219,
            6.6523,
            16.9303,
            222.364,
            126.1695,
            118.0446,
            11.2435,
            3.3967,
            2.3535,
            2.7105,
            3.6605,
            3.9359,
            5.9686,
            9.1973,
            60.9189,
            170.5854,
            48.191,
            328.3152,
            645.3192,
            743.5541,
            63.7324,
            14.2489,
            11.2483,
            12.9846,
            38.3836,
            506.804,
            194.9804,
            245.1054,
            372.6524,
            19.181,
            5.1968,
            5.8869,
            13.1018,
            18.4433,
            218.3253,
            499.446,
            92.6684,
            14.5794,
            82.9172,
            186.3593,
            10.5998,
            3.7751,
            19.0433,
            145.7135,
            103.5449,
            122.5229,
            78.1061,
            64.7063,
            0.409,
            3.4384,
            5.1386,
            -3.5993,
            6.8787,
            -5.5729,
            87.3969,
            7.0821,
            12.6501,
            74.8772,
            15.763,
            2.3161,
            18.0857,
            37.1471,
            48.7592,
            47.3112,
            26.5514,
            234.9368,
            17.7802,
            116.4013,
            180.3492,
            34.4247,
            3.8599,
            10.3198,
            115.738,
            20.8517,
            51.474,
            3.3776,
            9.9912,
            89.765,
            90.6902,
            -1.9285,
            16.4201,
            63.5856,
            32.5685,
            124.6164,
            105.0892,
            16.8109,
            45.4005,
            1.27,
            0.9329,
            81.8431,
            7.4076,
            43.538,
            20.1732,
            21.3232,
            5.5328,
            42.6651,
            30.772,
            11.1742,
            152.1558,
            102.5695,
            212.3029,
            61.4404,
            89.357,
            92.7498,
            41.6164,
            82.8407,
            47.8394,
            54.4741,
            62.9688,
            46.2478,
            54.1461,
            84.8513,
            76.2639,
            97.6722,
            3.5561,
            5.1995,
            31.2787,
            42.2723,
            30.8559,
            26.943,
            45.8528,
            39.2595,
            8.0443,
            16.9705,
            70.7373,
            78.3454,
            18.135,
            67.6154,
            5.1183,
            14.4651,
            18.3169,
            22.7425,
            49.9943,
            61.3957,
            54.0445,
            52.9662,
            10.2771,
            12.7627,
            77.194,
            48.4231,
            10.321,
            6.2541,
            60.2863,
            6.4971,
            4.3809,
            39.5645,
            10.2473,
            25.7345,
            6.4306,
            8.731,
            35.5985,
            48.6465,
            20.7752,
            26.8274,
            28.8465,
            34.2259,
            21.7351,
            70.3589,
            10.3964,
            7.4877,
            26.0678,
            22.3225,
            23.2176,
            18.1926,
            28.4048,
            14.0896,
            19.3975,
            12.4104,
            19.3745,
            11.3786,
            30.8123,
            20.8868,
            25.9518,
            22.9832,
            31.6024,
            4.1957,
            28.7072,
            21.9372,
            19.0349,
            12.2903,
            33.6023,
            30.655,
            25.3066,
            13.7645,
            39.6845,
            16.4694,
            11.5033,
            15.1079,
            18.9388,
            14.698,
            26.418,
            15.669,
            18.9814,
            33.892,
            17.7781,
            21.0913,
            18.8351,
            24.7047,
            21.4409,
            15.5144,
            27.1292,
            25.5851,
            10.8021,
            15.2765,
            21.9225,
            25.0462,
            14.1678,
            18.8607,
            18.3087,
            19.5764,
            19.6028,
            12.6699,
            12.7101,
            17.6485,
            21.7592,
            13.0949,
            15.8516,
            23.8661,
            13.4205,
            15.6688,
            14.703,
            22.5479,
            12.8228,
            10.5709,
            19.0248,
            12.7265,
            18.3058,
            17.1625,
            13.6732,
            12.1024,
            12.0441,
            9.6575,
            13.1118,
            12.4775,
            16.8095,
            12.8482,
            14.2131,
            11.8913,
            16.2555,
            15.3438,
            14.8255,
            17.3833,
            10.6848,
            16.1231,
            13.9401,
            15.0343,
            15.1605,
            11.98,
            12.0065,
            9.8216,
            14.5636,
            10.4417,
            16.2884,
            10.8243,
            12.2178,
            14.017,
            11.2385,
            13.0454,
            15.501,
            10.8702,
            8.5967,
            13.6596,
            13.978,
            10.5631,
            15.1204,
            13.3816,
            13.6629,
            11.5199,
            12.1407,
            10.9968,
            9.9482,
            12.2213,
            11.3331,
            7.7999,
            13.8105,
            15.3346,
            8.4864,
            10.1034,
            12.2604,
            8.186,
            6.5227,
            10.1795,
            8.6501,
            7.0372,
            11.6156,
            10.4658,
            11.6197,
            12.8753,
            7.6541,
            6.8888,
            8.9639,
            11.1589,
            9.1726,
            6.7707,
            7.3089,
            11.776,
            5.6446,
            8.0013,
            7.4155,
            11.3956,
            8.3894,
            6.0414,
            4.1242,
            4.7573,
            9.0482,
            8.9739,
            10.1068,
            9.4912,
            9.6167,
            8.518,
            9.7146,
            6.6092,
            9.6124,
            5.5846,
            8.1781,
            7.9869,
            7.2394,
            9.4927,
            7.6415,
            5.6304,
            5.6757,
            9.4208,
            8.1846,
            6.1815,
            6.772,
            8.1364,
            8.2766,
            6.0542,
            7.9991,
            5.707,
            6.5382,
            7.444,
            5.7575,
            5.1257,
            4.9361,
            6.2565,
            5.1889,
            5.3369,
            3.7093,
            5.7568,
            5.894,
            3.9107,
            6.3017,
            5.5926,
            6.3424,
            5.5963,
            5.5978,
            4.861,
            3.6446,
            7.0159,
            7.3235,
            4.9875,
            3.8334,
            3.8137,
            7.3638,
            2.715,
            3.6327,
            3.3945,
            5.0258,
            2.9213,
            3.6706,
            3.5241,
            3.6679,
            1.8565,
            2.3397,
            3.3803,
            2.0052,
            2.8219,
            2.3305,
            1.8417,
            2.1312,
            1.7333,
            1.1421,
            1.2842,
            1.0526
          ]
        ]
      }
    },
    "004": {
      "common": {
        "heads": [
          "THICKNESS"
        ],
        "units": [
          "ATOMS/B"
        ],
        "data": [
          [
            0.000651
          ]
        ]
      },
      "data": {
        "heads": [
          "EN",
          "DATA"
        ],
        "units": [
          "EV",
          "B"
        ],
        "data": [
          [
            0.00317,
            0.00323,
            0.00329,
            0.00335,
            0.00341,
            0.00347,
            0.00353,
            0.0036,
            0.00366,
            0.00373,
            0.0038,
            0.00387,
            0.00394,
            0.00401,
            0.00409,
            0.00416,
            0.00424,
            0.00432,
            0.00439,
            0.00448,
            0.00456,
            0.00464,
            0.00473,
            0.00481,
            0.0049,
            0.00499,
            0.00508,
            0.00518,
            0.00527,
            0.00537,
            0.00547,
            0.00557,
            0.00567,
            0.00577,
            0.00588,
            0.00599,
            0.0061,
            0.00621,
            0.00632,
            0.00644,
            0.00656,
            0.00668,
            0.0068,
            0.00692,
            0.00705,
            0.00718,
            0.00731,
            0.00745,
            0.00758,
            0.00772,
            0.00786,
            0.00801,
            0.00815,
            0.0083,
            0.00846,
            0.00861,
            0.00877,
            0.00893,
            0.00909,
            0.00926,
            0.00943,
            0.0096,
            0.00978,
            0.00996,
            0.01014,
            0.01033,
            0.01052,
            0.01071,
            0.01091,
            0.01111,
            0.01131,
            0.01152,
            0.01173,
            0.01195,
            0.01217,
            0.01239,
            0.01262,
            0.01285,
            0.01308,
            0.01332,
            0.01357,
            0.01382,
            0.01407,
            0.01433,
            0.01459,
            0.01486,
            0.01513,
            0.01541,
            0.01569,
            0.01598,
            0.01627,
            0.01657,
            0.01688,
            0.01719,
            0.0175,
            0.01782,
            0.01815,
            0.01848,
            0.01882,
            0.01917,
            0.01952,
            0.01988,
            0.02024,
            0.02061,
            0.02099,
            0.02138,
            0.02177,
            0.02217,
            0.02257,
            0.02299,
            0.02341,
            0.02384,
            0.02428,
            0.02472,
            0.0253,
            0.02564,
            0.02611,
            0.02659,
            0.02708,
            0.02757,
            0.02808,
            0.02859,
            0.02912,
            0.02965,
            0.0302,
            0.03075,
            0.03131,
            0.03189,
            0.03247,
            0.03307,
            0.03368,
            0.03429,
            0.03492,
            0.03556,
            0.03622,
            0.03688,
            0.03756,
            0.03825,
            0.03895,
            0.03966,
            0.04039,
            0.04113,
            0.04189,
            0.04266,
            0.04344,
            0.04424,
            0.04505,
            0.04587,
            0.04672,
            0.04757,
            0.04845,
            0.04933,
            0.05024,
            0.05116,
            0.0521,
            0.05306,
            0.05403,
            0.05502,
            0.05603,
            0.05706,
            0.0581,
            0.05917,
            0.06026,
            0.06136,
            0.06249,
            0.06363,
            0.0648,
            0.06599,
            0.0672,
            0.06844,
            0.06969,
            0.07097,
            0.07227,
            0.0736,
            0.07495,
            0.07632,
            0.07772,
            0.07915,
            0.0806,
            0.08208,
            0.08359,
            0.08512,
            0.08668,
            0.08827,
            0.08989,
            0.09154,
            0.09322,
            0.09493,
            0.09667,
            0.09845,
            0.10025,
            0.10209,
            0.10397,
            0.10587,
            0.10782,
            0.10979,
            0.11181,
            0.11386,
            0.11595,
            0.11808,
            0.12024,
            0.12245,
            0.1247,
            0.12698,
            0.12931,
            0.13169,
            0.1341,
            0.13656,
            0.13907,
            0.14162,
            0.14422,
            0.14687,
            0.14956,
            0.1523,
            0.1551,
            0.15795,
            0.16084,
            0.16379,
            0.1668,
            0.16986,
            0.17298,
            0.17615,
            0.17938,
            0.18267,
            0.18603,
            0.18944,
            0.19291,
            0.19645,
            0.20006,
            0.20373,
            0.20747,
            0.21127,
            0.21515,
            0.2191,
            0.22312,
            0.22721,
            0.23138,
            0.23563,
            0.23995,
            0.24435,
            0.24884,
            0.2534,
            0.25805,
            0.26279,
            0.26761,
            0.27252,
            0.27752,
            0.28261,
            0.2878,
            0.29308,
            0.29845,
            0.30393,
            0.30951,
            0.31518,
            0.32097,
            0.32686,
            0.33285,
            0.33896,
            0.34518,
            0.35151,
            0.35796,
            0.36453,
            0.37122,
            0.37803,
            0.38497,
            0.39203,
            0.39922,
            0.40655,
            0.41401,
            0.4216,
            0.42934,
            0.43722,
            0.44524,
            0.45341,
            0.46173,
            0.4702,
            0.47883,
            0.48761,
            0.49656,
            0.50567,
            0.51495,
            0.5244,
            0.53402,
            0.54382,
            0.55379,
            0.56396,
            0.5743,
            0.58484,
            0.59557,
            0.6065,
            0.61763,
            0.62896,
            0.6405,
            0.65225,
            0.66422,
            0.67641,
            0.68882,
            0.70146,
            0.71433,
            0.72743,
            0.74078,
            0.75437,
            0.76821,
            0.78231,
            0.79666,
            0.81128,
            0.82616,
            0.84132,
            0.85676,
            0.87248,
            0.88849,
            0.90479,
            0.92139,
            0.9383,
            0.95551,
            0.97305,
            0.9909,
            1.0091,
            1.0276,
            1.0465,
            1.0657,
            1.0852,
            1.1051,
            1.1254,
            1.146,
            1.1671,
            1.1885,
            1.2103,
            1.2325,
            1.2551,
            1.2781,
            1.3016,
            1.3255,
            1.3498,
            1.3746,
            1.3998,
            1.4255,
            1.4516,
            1.4783,
            1.5054,
            1.533,
            1.5611,
            1.5898,
            1.6189,
            1.6486,
            1.6789,
            1.7097,
            1.7411,
            1.773,
            1.8055,
            1.8387,
            1.8724,
            1.9068,
            1.9417,
            1.9774,
            2.0137,
            2.0506,
            2.0882,
            2.1265,
            2.1656,
            2.2053,
            2.2458,
            2.287,
            2.3289,
            2.3717,
            2.4152,
            2.4595,
            2.5046,
            2.5506,
            2.5974,
            2.645,
            2.6935,
            2.743,
            2.7933,
            2.8445,
            2.8967,
            2.9499,
            3.004,
            3.0591,
            3.1153,
            3.1724,
            3.2306,
            3.2899,
            3.3503,
            3.4117,
            3.4743,
            3.5381,
            3.603,
            3.6691,
            3.7364,
            3.805,
            3.8748,
            3.9459,
            4.0183,
            4.092,
            4.1671,
            4.2436,
            4.3214,
            4.4007,
            4.4815,
            4.5637,
            4.6474,
            4.7327,
            4.8195,
            4.908,
            4.998,
            5.0897,
            5.1831,
            5.2782,
            5.375,
            5.4737,
            5.5741,
            5.6764,
            5.7805,
            5.8866,
            5.9946,
            6.1046,
            6.2166,
            6.3307,
            6.4468,
            6.5651,
            6.6856,
            6.8082,
            6.9331,
            7.0603,
            7.1899,
            7.3218,
            7.4562,
            7.593,
            7.7323,
            7.8741,
            8.0186,
            8.1657,
            8.3156,
            8.4682,
            8.6235,
            8.7818,
            8.9429,
            9.107,
            9.2741,
            9.4442,
            9.6175,
            9.794,
            9.9737
          ],
          [
            428.5136,
            389.6094,
            425.4196,
            470.0559,
            391.7811,
            375.2219,
            396.4588,
            438.1255,
            404.1628,
            444.394,
            377.9697,
            433.4557,
            413.2595,
            374.4906,
            355.062,
            381.1683,
            422.048,
            377.4976,
            372.4478,
            380.0816,
            332.0124,
            392.0455,
            347.9227,
            348.7773,
            383.4936,
            354.0104,
            358.8336,
            329.9606,
            339.2458,
            340.5547,
            331.8458,
            349.6664,
            335.6278,
            341.51,
            336.112,
            334.7716,
            331.3199,
            326.1812,
            332.4136,
            323.3292,
            332.4673,
            310.3346,
            305.6293,
            299.6897,
            300.9357,
            303.7351,
            286.2165,
            299.0657,
            295.0463,
            293.4985,
            304.0484,
            286.6324,
            290.1965,
            283.8998,
            275.2334,
            281.6532,
            266.427,
            270.9828,
            271.2853,
            266.8624,
            257.7024,
            271.2531,
            267.8865,
            249.7047,
            265.4182,
            248.1982,
            253.33,
            244.0469,
            243.8802,
            248.537,
            237.8889,
            236.3403,
            237.0806,
            233.2735,
            238.6721,
            234.592,
            229.816,
            227.8094,
            222.4315,
            219.0057,
            223.4111,
            222.027,
            217.0019,
            214.8654,
            214.6431,
            213.1193,
            207.4979,
            208.3001,
            206.3214,
            204.3429,
            204.3972,
            201.9979,
            200.6831,
            197.6608,
            194.0696,
            196.4128,
            197.3361,
            191.8438,
            189.6405,
            190.2474,
            190.3238,
            183.3556,
            182.2982,
            181.8264,
            181.8234,
            176.4268,
            174.4607,
            177.3042,
            175.4727,
            172.3179,
            173.1508,
            169.0789,
            170.3148,
            166.3928,
            162.2976,
            164.3347,
            164.9195,
            159.9319,
            157.9571,
            159.6704,
            158.6375,
            155.113,
            154.7724,
            154.1944,
            151.15,
            151.643,
            152.2034,
            149.5651,
            149.4981,
            144.9563,
            143.5453,
            143.5776,
            142.1579,
            141.1388,
            141.2167,
            139.5786,
            139.7573,
            138.157,
            136.4272,
            136.0482,
            134.5084,
            131.1323,
            133.9367,
            131.8138,
            130.2255,
            129.7683,
            127.1305,
            126.3884,
            125.718,
            123.6919,
            125.0097,
            122.7855,
            121.8227,
            122.9139,
            120.8906,
            120.5965,
            117.8349,
            116.6195,
            116.4933,
            115.5379,
            114.4804,
            114.949,
            112.07,
            114.6105,
            112.2342,
            111.6449,
            110.3777,
            107.8812,
            107.9841,
            106.7538,
            105.5601,
            106.4629,
            104.9785,
            104.0465,
            101.7844,
            102.1712,
            100.6764,
            99.8196,
            100.25,
            99.6808,
            98.1116,
            97.4992,
            96.2255,
            96.8809,
            95.4062,
            95.8477,
            92.6897,
            93.2387,
            94.3233,
            95.391,
            91.1384,
            87.9004,
            89.8952,
            90.4938,
            90.9341,
            87.1292,
            86.9265,
            86.5788,
            86.0377,
            83.6673,
            83.7808,
            84.0274,
            83.5133,
            81.7303,
            80.7004,
            78.878,
            78.9037,
            81.1667,
            79.1477,
            79.8958,
            74.5051,
            78.4132,
            76.8707,
            76.8392,
            76.1777,
            76.0091,
            74.714,
            72.9825,
            73.7786,
            74.4165,
            67.5564,
            72.0386,
            68.7833,
            71.6226,
            69.726,
            73.0438,
            66.061,
            65.1257,
            69.6228,
            64.1072,
            67.3176,
            65.9617,
            63.0892,
            64.0261,
            68.7702,
            66.3646,
            63.9335,
            61.6912,
            67.381,
            63.7764,
            57.757,
            61.0879,
            59.5139,
            59.4496,
            59.2999,
            61.0858,
            60.9679,
            58.1979,
            58.9284,
            58.2462,
            57.3925,
            61.2991,
            56.3285,
            56.4698,
            54.1822,
            57.3818,
            59.7029,
            57.4238,
            54.0411,
            56.5549,
            57.2182,
            57.08,
            55.3755,
            56.079,
            57.0345,
            56.981,
            50.9342,
            55.8183,
            52.9375,
            53.3978,
            54.4741,
            55.1875,
            55.0873,
            56.1702,
            55.9985,
            53.2491,
            55.1641,
            56.614,
            52.7629,
            60.1016,
            53.3608,
            54.4596,
            55.8465,
            54.2542,
            55.9094,
            54.9113,
            53.689,
            54.3533,
            54.8058,
            58.4542,
            61.1589,
            57.7587,
            59.8061,
            59.1236,
            59.5312,
            59.1422,
            60.6286,
            61.0277,
            64.5839,
            64.3154,
            61.6157,
            65.273,
            65.5582,
            70.7343,
            63.3152,
            70.2979,
            69.3749,
            67.8765,
            71.6127,
            73.9635,
            72.1992,
            74.7898,
            80.6286,
            82.178,
            81.7429,
            83.2581,
            87.1738,
            92.5736,
            92.9024,
            98.5058,
            105.6934,
            107.6897,
            109.4103,
            121.5247,
            126.5547,
            123.1311,
            140.4906,
            149.5481,
            159.8499,
            178.2894,
            189.0719,
            203.3509,
            231.87,
            249.6247,
            282.3193,
            330.2526,
            364.0203,
            433.8379,
            521.0779,
            662.0885,
            789.0046,
            1086.4947,
            1552.7643,
            2453.3999,
            4769.4622,
            8467.5672,
            10731.2434,
            9394.6968,
            6002.8884,
            3814.8278,
            2674.5256,
            1911.6576,
            1384.9627,
            986.6323,
            728.1455,
            528.2376,
            396.5865,
            319.1077,
            255.9789,
            213.1482,
            164.7121,
            144.2923,
            118.5847,
            104.0613,
            93.7306,
            72.493,
            67.6379,
            59.1243,
            55.7186,
            47.8786,
            45.7134,
            41.6263,
            42.3366,
            45.6469,
            39.2688,
            31.129,
            25.7968,
            24.2228,
            22.1484,
            18.7452,
            19.7588,
            17.0876,
            16.3104,
            17.2009,
            16.0097,
            12.604,
            11.903,
            14.6654,
            15.8588,
            21.9567,
            29.733,
            20.5917,
            15.3804,
            8.9554,
            11.1619,
            12.4495,
            12.976,
            24.8805,
            48.3062,
            31.7714,
            14.9399,
            13.075,
            14.1063,
            14.908,
            14.4195,
            17.2714,
            24.3097,
            27.6863,
            45.3179,
            92.391,
            262.9643,
            603.5766,
            505.1136,
            181.3807,
            117.5491,
            136.1168,
            59.397,
            23.5018,
            14.2992,
            8.9229,
            8.2767,
            7.5383,
            6.7489,
            4.7761,
            6.0172,
            3.5673,
            4.5919,
            3.2232,
            3.1593,
            2.0307,
            7.1583,
            5.1133,
            4.4873,
            2.7885,
            2.8268,
            2.2501,
            2.0176,
            3.4038,
            3.1609,
            4.0615,
            3.4634,
            5.2352,
            1.9049,
            3.9317
          ]
        ]
      }
    },
    "005": {
      "common": {
        "heads": [
          "THICKNESS"
        ],
        "units": [
          "ATOMS/B"
        ],
        "data": [
          [
            0.000651
          ]
        ]
      },
      "data": {
        "heads": [
          "EN",
          "DATA"
        ],
        "units": [
          "EV",
          "B"
        ],
        "data": [
          [
            10.157,
            10.343,
            10.533,
            10.726,
            10.923,
            11.123,
            11.327,
            11.535,
            11.747,
            11.962,
            12.182,
            12.405,
            12.633,
            12.865,
            13.101,
            13.341,
            13.586,
            13.835,
            14.089,
            14.348,
            14.611,
            14.879,
            15.152,
            15.43,
            15.713,
            16.001,
            16.295,
            16.594,
            16.898,
            17.208,
            17.524,
            17.846,
            18.173,
            18.507,
            18.846,
            19.192,
            19.544,
            19.903,
            20.268,
            20.64,
            21.018,
            21.404,
            21.797,
            22.197,
            22.604,
            23.019,
            23.441,
            23.871,
            24.309,
            24.755,
            25.209,
            25.672,
            26.143,
            26.623,
            27.111,
            27.609,
            28.115,
            28.631,
            29.156,
            29.691,
            30.236,
            30.791,
            31.356,
            31.931,
            32.517,
            33.114,
            33.721,
            34.34,
            34.97,
            35.612,
            36.265,
            36.931,
            37.608,
            38.298,
            39.001,
            39.716,
            40.445,
            41.187,
            41.943,
            42.713,
            43.496,
            44.294,
            45.107,
            45.935,
            46.778,
            47.636,
            48.51,
            49.4,
            50.306,
            51.229,
            52.169,
            53.126,
            54.101,
            55.094,
            56.105,
            57.134,
            58.182,
            59.25,
            60.337,
            61.444,
            62.572,
            63.72,
            64.889,
            66.079,
            67.292,
            68.527,
            69.784,
            71.064,
            72.368,
            73.696,
            75.048,
            76.425,
            77.827,
            79.255,
            80.71,
            82.19,
            83.698,
            85.234,
            86.798,
            88.391,
            90.012,
            91.664,
            93.346,
            95.059,
            96.803,
            98.579,
            100.39,
            102.23,
            104.11,
            106.02,
            107.96,
            109.94,
            111.96,
            114.01,
            116.1,
            118.24,
            120.4,
            122.61,
            124.86,
            127.15,
            129.49,
            131.86,
            134.28,
            136.75,
            139.26,
            141.81,
            144.41,
            147.06,
            149.76,
            152.51,
            155.31,
            158.16,
            161.06,
            164.01,
            167.02,
            170.09,
            173.21,
            176.39,
            179.62,
            182.92,
            186.27,
            189.69,
            193.17,
            196.72,
            200.33,
            204.0,
            207.75,
            211.56,
            215.44,
            219.39,
            223.42,
            227.52,
            231.69,
            235.94,
            240.27,
            244.68,
            249.17,
            253.74,
            258.4,
            263.14,
            267.97,
            272.88,
            277.89,
            282.99,
            288.18,
            293.47,
            298.85,
            304.34,
            309.92,
            315.61,
            321.4,
            327.29,
            333.3,
            339.41,
            345.64,
            351.98,
            358.44,
            365.02,
            371.72,
            378.54,
            385.48,
            392.55,
            399.76,
            407.09,
            414.56,
            422.17,
            429.91,
            437.8,
            445.83,
            454.01,
            462.35,
            470.83,
            479.47,
            488.26,
            497.22,
            506.35,
            515.64,
            525.1,
            534.73,
            544.54,
            554.53,
            564.71,
            575.07,
            585.62,
            596.37,
            607.31,
            618.45,
            629.8,
            641.36,
            653.12,
            665.11,
            677.31,
            689.74,
            702.39,
            715.28,
            728.4,
            741.77,
            755.38,
            769.24,
            783.35,
            797.73,
            812.36,
            827.27,
            842.45,
            857.91,
            873.65,
            889.68,
            906.0,
            922.62,
            939.55,
            956.79,
            974.35,
            992.22,
            1010.4,
            1029.0,
            1047.8,
            1067.1,
            1086.7,
            1106.6,
            1126.9,
            1147.6,
            1168.6,
            1190.1,
            1211.9,
            1234.1,
            1256.8,
            1279.8,
            1303.3,
            1327.2,
            1351.6,
            1376.4,
            1401.6,
            1427.4,
            1453.6,
            1480.2,
            1507.4,
            1535.0,
            1563.2,
            1591.9,
            1621.1,
            1650.8,
            1681.1,
            1712.0,
            1743.4,
            1775.4,
            1807.9,
            1841.1,
            1874.9,
            1909.3,
            1944.3,
            1980.0,
            2016.3,
            2053.3,
            2091.0,
            2129.4,
            2168.4,
            2208.2,
            2248.8,
            2290.0,
            2332.0,
            2374.8,
            2418.4,
            2462.8,
            2507.9,
            2554.0,
            2600.8,
            2648.5,
            2697.1,
            2746.6,
            2797.0,
            2848.3,
            2900.6,
            2953.8,
            3008.0,
            3063.2,
            3119.4,
            3176.7,
            3234.9,
            3294.3,
            3354.7,
            3416.3,
            3479.0,
            3542.8,
            3607.8,
            3674.0,
            3741.4,
            3810.1,
            3880.0,
            3951.2,
            4023.7,
            4097.5,
            4172.7,
            4249.2,
            4327.2,
            4406.6,
            4487.4,
            4569.8,
            4653.6,
            4739.0,
            4826.0,
            4914.5,
            5004.7,
            5096.5,
            5190.0,
            5382.2,
            5481.0,
            5581.5,
            5684.0,
            5788.2,
            5894.4,
            6002.6,
            6112.7,
            6339.1,
            6455.4,
            6573.9,
            6694.5,
            6817.3,
            7069.8,
            7199.5,
            7331.6,
            7603.1,
            7742.6,
            7884.7,
            8029.3,
            8326.7,
            8479.5,
            8793.5,
            8954.8,
            9119.1,
            9456.8,
            9630.4,
            9987.0,
            10170.0,
            10547.0,
            10740.0,
            11138.0,
            11342.0,
            11763.0,
            12198.0,
            12422.0,
            12882.0,
            13359.0,
            13604.0,
            14108.0,
            14630.0,
            15172.0,
            15734.0,
            16317.0,
            16616.0,
            17231.0,
            17870.0,
            18531.0,
            19218.0,
            20295.0,
            21047.0,
            21826.0,
            22634.0,
            23472.0,
            24788.0,
            25706.0,
            26658.0,
            28153.0,
            29195.0,
            30832.0,
            32561.0,
            33766.0,
            35659.0,
            37658.0,
            39770.0,
            41999.0,
            44354.0,
            46840.0,
            50374.0,
            53197.0,
            56180.0,
            60418.0,
            64976.0,
            69877.0,
            75148.0,
            80817.0,
            86914.0,
            95186.0,
            102370.0,
            112110.0,
            122780.0,
            136930.0,
            149960.0,
            167250.0,
            189950.0,
            211840.0
          ],
          [
            3.2541,
            4.4651,
            9.7237,
            13.0984,
            5.5569,
            6.1301,
            3.4926,
            3.2593,
            5.3588,
            4.1618,
            4.5644,
            4.4418,
            5.4106,
            5.3379,
            6.0152,
            5.4369,
            7.962,
            7.3329,
            9.6823,
            20.9005,
            26.717,
            23.7001,
            24.0985,
            32.297,
            57.7643,
            158.5997,
            1457.6036,
            1316.7605,
            1115.8394,
            281.7818,
            86.2077,
            43.0012,
            26.3164,
            17.5765,
            15.2173,
            16.6724,
            12.5446,
            40.6205,
            194.6773,
            29.4611,
            12.1986,
            4.5294,
            3.8701,
            2.7639,
            2.9657,
            2.4821,
            1.6538,
            2.7306,
            3.2529,
            3.7388,
            2.2455,
            2.9987,
            1.6724,
            2.5792,
            2.0424,
            2.725,
            2.2672,
            0.7804,
            1.1923,
            3.1829,
            1.8404,
            2.2214,
            0.9254,
            1.5348,
            1.0855,
            2.6808,
            2.3256,
            2.6057,
            5.3398,
            11.1151,
            96.2633,
            425.0548,
            28.2357,
            7.3354,
            6.7284,
            8.1676,
            7.7497,
            1.6046,
            2.4779,
            1.5188,
            2.1276,
            5.0379,
            2.758,
            3.3354,
            4.3551,
            2.2523,
            1.7786,
            2.6488,
            4.6024,
            54.5161,
            90.5174,
            6.1508,
            3.1329,
            6.6005,
            26.8395,
            356.814,
            233.534,
            61.5107,
            366.0356,
            279.5903,
            26.2239,
            8.1728,
            5.5825,
            6.7345,
            57.7026,
            159.318,
            4.779,
            4.2629,
            13.4498,
            63.7878,
            14.2519,
            8.8869,
            43.358,
            7.5436,
            124.9974,
            75.2613,
            3.773,
            2.7255,
            2.8412,
            18.9989,
            5.2927,
            4.2227,
            2.1167,
            15.1232,
            180.2597,
            7.4092,
            4.0732,
            3.3921,
            3.1502,
            -5.2771,
            211.0875,
            300.9498,
            22.303,
            4.9756,
            5.6231,
            2.2925,
            3.445,
            11.732,
            25.8951,
            4.2709,
            94.1519,
            90.3606,
            3.5418,
            3.6865,
            30.2435,
            4.7478,
            4.9179,
            66.3578,
            129.3955,
            15.5595,
            -24.7109,
            57.3622,
            87.5321,
            2.653,
            18.1815,
            26.3471,
            4.1348,
            1.5592,
            3.2088,
            15.56,
            1.5891,
            16.1768,
            11.9987,
            5.9268,
            2.2769,
            3.834,
            39.7424,
            106.7225,
            6.5334,
            17.3248,
            -1.4224,
            39.5342,
            116.0567,
            5.3603,
            11.062,
            2.1004,
            1.536,
            4.9365,
            24.7856,
            7.6985,
            66.2877,
            33.7475,
            60.5585,
            29.7671,
            31.0196,
            19.4664,
            42.2687,
            39.4206,
            26.0336,
            3.2825,
            4.4166,
            18.5596,
            148.8998,
            35.7296,
            2.2518,
            22.6345,
            42.7756,
            4.7754,
            3.8822,
            51.5443,
            7.2156,
            5.8106,
            43.33,
            9.238,
            20.3554,
            75.6479,
            7.5275,
            6.2942,
            11.6044,
            1.038,
            8.0912,
            31.9523,
            7.9747,
            7.5156,
            34.8991,
            -1.5246,
            12.5169,
            7.4164,
            14.5248,
            21.9276,
            27.5973,
            0.7115,
            2.9148,
            30.7402,
            16.616,
            9.7303,
            30.872,
            11.346,
            21.8724,
            32.9178,
            27.7196,
            2.5672,
            4.8718,
            4.5899,
            13.4195,
            9.3067,
            13.8071,
            11.0136,
            8.6622,
            9.3387,
            7.3953,
            5.4625,
            10.3136,
            19.5658,
            9.7413,
            12.7063,
            13.4602,
            7.281,
            6.1605,
            9.9299,
            15.3773,
            13.7391,
            9.5528,
            9.5545,
            5.3646,
            11.1857,
            13.0086,
            17.4664,
            6.5395,
            7.4119,
            5.461,
            8.4564,
            11.6029,
            10.7382,
            3.0197,
            12.1774,
            4.9654,
            5.6951,
            8.8912,
            8.8257,
            11.8187,
            7.9727,
            5.4023,
            6.8695,
            6.4504,
            10.9925,
            10.9416,
            6.5087,
            2.881,
            8.399,
            3.3976,
            4.3085,
            6.566,
            6.4588,
            6.6588,
            8.4125,
            9.8296,
            6.6185,
            6.5975,
            3.7644,
            3.5116,
            8.4021,
            11.3999,
            4.385,
            7.0684,
            4.0499,
            5.6049,
            6.7931,
            6.082,
            6.8033,
            8.5367,
            8.2797,
            8.6906,
            2.4605,
            5.7643,
            6.3492,
            5.8286,
            5.459,
            7.9156,
            6.6594,
            10.3648,
            8.066,
            5.8542,
            7.1297,
            3.5063,
            5.3563,
            7.9807,
            6.0508,
            4.4617,
            7.8563,
            3.7121,
            5.8132,
            5.9091,
            6.4626,
            4.8608,
            0.3256,
            4.5386,
            4.6344,
            3.812,
            4.8486,
            6.6195,
            3.4378,
            0.7163,
            5.7874,
            5.5188,
            3.5369,
            6.78,
            5.118,
            3.6719,
            6.0935,
            4.8458,
            6.226,
            4.3812,
            5.4679,
            6.8107,
            4.5421,
            6.2069,
            5.3538,
            4.8277,
            2.4803,
            7.3791,
            4.5499,
            8.3935,
            6.1792,
            8.3068,
            5.0525,
            2.8949,
            3.5772,
            3.8587,
            8.3266,
            4.5762,
            5.2113,
            3.2685,
            4.0605,
            3.4323,
            5.6944,
            2.3628,
            3.5769,
            2.8653,
            5.898,
            4.5691,
            4.1176,
            4.2673,
            2.5803,
            3.6359,
            1.4442,
            3.9906,
            3.8863,
            4.2862,
            3.3155,
            3.5071,
            4.562,
            3.3582,
            3.0032,
            3.2297,
            3.5269,
            4.4708,
            2.9296,
            3.9502,
            1.9931,
            4.0836,
            1.9268,
            3.7468,
            1.8846,
            4.226,
            3.0694,
            2.0602,
            5.0175,
            3.3065,
            3.9593,
            2.8839,
            2.4508,
            4.0399,
            1.9703,
            4.1243,
            3.271,
            2.0312,
            1.6695,
            2.1847,
            2.2089,
            2.901,
            2.8663,
            2.7076,
            1.8517,
            2.3867,
            2.1383,
            1.3309,
            2.8591,
            1.1544,
            1.7062,
            2.0043,
            1.0044,
            1.8224,
            1.619,
            1.2904,
            1.2256,
            1.2611,
            0.588,
            1.0537,
            0.8507
          ]
        ]
      }
    }
  },
  "experimental_conditions": {
    "001": {
      "0": {
        "correction": [
          {
            "x4_code": null,
            "free_txt": [
              "Corrected for self-shielding"
            ]
          }
        ],
        "detector": [
          {
            "x4_code": "(BGO)",
            "free_txt": [
              " 12 BGO scintillators (5 cm x 5 cm, 7.5 cm for",
              " each)"
            ]
          }
        ],
        "facility": [
          {
            "x4_code": "(LINAC,2JPNKTO)",
            "free_txt": [
              " KURRI 46 MeV electron linac"
            ]
          }
        ],
        "inc-source": [
          {
            "x4_code": "(PHOTO)",
            "free_txt": [
              " 30 MeV electrons on 12 sheets of Ta plates",
              " (5 cm diam., 2.9 cm effective thickness) followed by",
              " water tank (30 cm diam., 10 cm thick) moderator."
            ]
          }
        ],
        "method": [
          {
            "x4_code": null,
            "free_txt": [
              "Total energy absorption"
            ]
          },
          {
            "x4_code": "(TOF)",
            "free_txt": [
              " Flight path of 12.70+/-0.02 m and 135 deg with",
              " respect to the electron beam line.",
              "- Low energy mode (En < 10 eV):",
              "   Repetition rate of 30 Hz, pulse width of 3 usec,",
              "   peak current of 0.5 A.",
              "- High energy mode (En > 1 eV):",
              "   Repetition rate of 200 Hz, pulse width of 0.1 usec,",
              "   peak current of 3 A."
            ]
          }
        ],
        "sample": [
          {
            "x4_code": null,
            "free_txt": [
              "- Sm metal plate (natural, 99.8% purity, 0.5 mm thick,",
              "   1.807 at/kb, 1.8x1.8 cm2) for flux determination",
              "- B powder (enriched to 10B at 96.98%), 8.0 mm thick,",
              "   52.42 at/kb, 1.8x1.8 cm2) for flux determination",
              "- C graphite plate (natural, 99.9% purity,",
              "   10.00 mm thick, 24.61 at/kb, 1.8x1.8 cm2)"
            ]
          }
        ],
        "status": [
          {
            "x4_code": "(TABLE)",
            "free_txt": [
              " Data received from Guinyun Kim"
            ]
          }
        ]
      }
    },
    "002": {
      "0": {
        "sample": [
          {
            "x4_code": null,
            "free_txt": [
              "Dy metal (enriched to 161Dy at 95.66%, 0.21 mm thick,",
              " 0.636 at/kb, 1.0 cm diam.)"
            ]
          },
          {
            "x4_code": "(66-DY-161,ENR=0.9566)",
            "free_txt": []
          },
          {
            "x4_code": "(66-DY-160,ENR=0.0035)",
            "free_txt": []
          },
          {
            "x4_code": "(66-DY-162,ENR=0.0253)",
            "free_txt": []
          },
          {
            "x4_code": "(66-DY-163,ENR=0.0090)",
            "free_txt": []
          },
          {
            "x4_code": "(66-DY-164,ENR=0.0056)",
            "free_txt": []
          }
        ]
      }
    },
    "003": {
      "0": {
        "sample": [
          {
            "x4_code": null,
            "free_txt": [
              "Dy metal (enriched to 161Dy at 95.66%, 0.21 mm thick,",
              " 0.636 at/kb, 1.0 cm diam.)"
            ]
          },
          {
            "x4_code": "(66-DY-161,ENR=0.9566)",
            "free_txt": []
          },
          {
            "x4_code": "(66-DY-160,ENR=0.0035)",
            "free_txt": []
          },
          {
            "x4_code": "(66-DY-162,ENR=0.0253)",
            "free_txt": []
          },
          {
            "x4_code": "(66-DY-163,ENR=0.0090)",
            "free_txt": []
          },
          {
            "x4_code": "(66-DY-164,ENR=0.0056)",
            "free_txt": []
          }
        ],
        "status": [
          {
            "x4_code": "(SPSDD)",
            "free_txt": [
              " Data above 10 eV not recommended"
            ]
          }
        ]
      }
    },
    "004": {
      "0": {
        "sample": [
          {
            "x4_code": null,
            "free_txt": [
              "Dy metal (enriched to 163Dy at 96.86%, 0.21 mm thick,",
              " 0.651 at/kb, 1.0 cm diam.)"
            ]
          },
          {
            "x4_code": "(66-DY-163,ENR=0.9686)",
            "free_txt": []
          },
          {
            "x4_code": "(66-DY-160,ENR=0.0003)",
            "free_txt": []
          },
          {
            "x4_code": "(66-DY-161,ENR=0.0036)",
            "free_txt": []
          },
          {
            "x4_code": "(66-DY-162,ENR=0.0123)",
            "free_txt": []
          },
          {
            "x4_code": "(66-DY-164,ENR=0.0152)",
            "free_txt": []
          }
        ]
      }
    },
    "005": {
      "0": {
        "sample": [
          {
            "x4_code": null,
            "free_txt": [
              "Dy metal (enriched to 163Dy at 96.86%, 0.21 mm thick,",
              " 0.651 at/kb, 1.0 cm diam.)"
            ]
          },
          {
            "x4_code": "(66-DY-163,ENR=0.9686)",
            "free_txt": []
          },
          {
            "x4_code": "(66-DY-160,ENR=0.0003)",
            "free_txt": []
          },
          {
            "x4_code": "(66-DY-161,ENR=0.0036)",
            "free_txt": []
          },
          {
            "x4_code": "(66-DY-162,ENR=0.0123)",
            "free_txt": []
          },
          {
            "x4_code": "(66-DY-164,ENR=0.0152)",
            "free_txt": []
          }
        ],
        "status": [
          {
            "x4_code": "(SPSDD)",
            "free_txt": [
              " Data above 10 eV not recommended"
            ]
          }
        ]
      }
    }
  }
}