{
  "entry": "10589",
  "last_updated": "2006-07-20",
  "number_of_revisions": "3",
  "histories": [
    {
      "x4_code": "(19760317C)",
      "free_txt": []
    },
    {
      "x4_code": "(19830914A)",
      "free_txt": [
        " Converted to REACTION formalism"
      ]
    },
    {
      "x4_code": "(20040723A)",
      "free_txt": [
        " Converted to new data formts, lower case."
      ]
    }
  ],
  "bib_record": {
    "title": "Total neutron cross section of 239Pu",
    "authors": [
      {
        "name": "K.A.Nadolny"
      },
      {
        "name": "F.L.Green"
      },
      {
        "name": "P.Stoler"
      }
    ],
    "institutes": [
      {
        "x4_code": "(1USARPI)",
        "free_txt": []
      }
    ],
    "references": {
      "0": [
        {
          "x4_code": "(P,USNDC-9,170,197312)",
          "free_txt": [],
          "publication_year": "1973"
        },
        {
          "x4_code": "(T,NADOLNY,1973)",
          "free_txt": [
            " B.S.thesis of K.A.Nadolny"
          ],
          "publication_year": "1973"
        }
      ]
    },
    "facilities": {
      "0": [
        {
          "x4_code": "(LINAC,1USARPI)",
          "free_txt": [],
          "facility_type": "(LINAC)",
          "institute": "(1USARPI)"
        }
      ]
    }
  },
  "data_tables": {
    "001": {
      "extra_information": {
        "detector": {
          "0": [
            {
              "x4_code": "(SCIN)",
              "free_txt": [
                " Proton-recoil liquid scintillator"
              ]
            }
          ]
        },
        "err-analys": {
          "0": [
            {
              "x4_code": "(DATA-ERR)",
              "free_txt": [
                " No information on source of uncertainty.",
                "Systematic errors estimated to be 1% above 1 MeV to",
                " about 15 MeV, and may become slightly worse at higher",
                " energies."
              ]
            }
          ]
        },
        "facility": {
          "0": [
            {
              "x4_code": "(LINAC,1USARPI)",
              "free_txt": []
            }
          ]
        },
        "method": {
          "0": [
            {
              "x4_code": "(TOF)",
              "free_txt": [
                " Time of flight. 250-meter flight path."
              ]
            }
          ]
        },
        "status": {
          "0": [
            {
              "x4_code": null,
              "free_txt": [
                "No reply to author proof.",
                "Data taken from private comm., Stoler, 1976/3/17."
              ]
            }
          ]
        }
      }
    },
    "002": {
      "reaction": {
        "0": {
          "x4_code": "(94-PU-239(N,TOT),,SIG)",
          "0": {
            "code": [
              "94-PU-239",
              [
                "N,TOT"
              ],
              ",,SIG"
            ],
            "type": null,
            "target": "94-PU-239",
            "process": "N,TOT",
            "sf49": ",,SIG",
            "sf4": null,
            "sf5": null,
            "sf6": "SIG",
            "sf7": null,
            "sf8": null,
            "sf9": null
          },
          "type": null,
          "free_text": ""
        }
      },
      "extra_information": {},
      "common": null,
      "data": {
        "heads": [
          "EN",
          "DATA",
          "DATA-ERR"
        ],
        "units": [
          "MEV",
          "B",
          "MB"
        ],
        "data": [
          [
            0.5,
            0.5012,
            0.5024,
            0.5037,
            0.5049,
            0.5061,
            0.5074,
            0.5086,
            0.5098,
            0.5111,
            0.5124,
            0.5136,
            0.5149,
            0.5161,
            0.5174,
            0.5187,
            0.52,
            0.5213,
            0.5226,
            0.5239,
            0.5252,
            0.5265,
            0.5278,
            0.5291,
            0.5304,
            0.5318,
            0.5331,
            0.5344,
            0.5358,
            0.5371,
            0.5385,
            0.5398,
            0.5412,
            0.5426,
            0.5439,
            0.5453,
            0.5467,
            0.5481,
            0.5495,
            0.5509,
            0.5523,
            0.5537,
            0.5551,
            0.5565,
            0.558,
            0.5594,
            0.5608,
            0.5623,
            0.5637,
            0.5652,
            0.5666,
            0.5681,
            0.5696,
            0.571,
            0.5725,
            0.574,
            0.5755,
            0.577,
            0.5785,
            0.58,
            0.5815,
            0.5831,
            0.5846,
            0.5861,
            0.5877,
            0.5892,
            0.5908,
            0.5923,
            0.5939,
            0.5955,
            0.5971,
            0.5986,
            0.6002,
            0.6018,
            0.6034,
            0.6051,
            0.6067,
            0.6083,
            0.6099,
            0.6116,
            0.6132,
            0.6149,
            0.6165,
            0.6182,
            0.6198,
            0.6215,
            0.6232,
            0.6249,
            0.6266,
            0.6283,
            0.63,
            0.6317,
            0.6335,
            0.6352,
            0.6369,
            0.6387,
            0.6404,
            0.6422,
            0.644,
            0.6457,
            0.6475,
            0.6493,
            0.6511,
            0.6529,
            0.6547,
            0.6565,
            0.6584,
            0.6602,
            0.6621,
            0.6639,
            0.6658,
            0.6676,
            0.6695,
            0.6714,
            0.6733,
            0.6752,
            0.6771,
            0.679,
            0.6809,
            0.6829,
            0.6848,
            0.6867,
            0.6887,
            0.6907,
            0.6926,
            0.6946,
            0.6966,
            0.6986,
            0.7006,
            0.7026,
            0.7047,
            0.7067,
            0.7087,
            0.7108,
            0.7128,
            0.7149,
            0.717,
            0.7191,
            0.7212,
            0.7233,
            0.7254,
            0.7275,
            0.7297,
            0.7318,
            0.7339,
            0.7361,
            0.7383,
            0.7405,
            0.7426,
            0.7448,
            0.7471,
            0.7493,
            0.7515,
            0.7537,
            0.756,
            0.7583,
            0.7605,
            0.7628,
            0.7651,
            0.7674,
            0.7697,
            0.772,
            0.7744,
            0.7767,
            0.7791,
            0.7814,
            0.7838,
            0.7862,
            0.7886,
            0.791,
            0.7934,
            0.7958,
            0.7983,
            0.8007,
            0.8032,
            0.8057,
            0.8082,
            0.8107,
            0.8132,
            0.8157,
            0.8182,
            0.8208,
            0.8233,
            0.8259,
            0.8285,
            0.8311,
            0.8337,
            0.8363,
            0.8389,
            0.8416,
            0.8442,
            0.8469,
            0.8496,
            0.8523,
            0.855,
            0.8577,
            0.8604,
            0.8632,
            0.8659,
            0.8687,
            0.8715,
            0.8743,
            0.8771,
            0.8799,
            0.8827,
            0.8856,
            0.8885,
            0.8913,
            0.8942,
            0.8971,
            0.9001,
            0.903,
            0.9059,
            0.9089,
            0.9119,
            0.9149,
            0.9179,
            0.9209,
            0.924,
            0.927,
            0.9301,
            0.9332,
            0.9363,
            0.9394,
            0.9425,
            0.9457,
            0.9488,
            0.952,
            0.9552,
            0.9584,
            0.9616,
            0.9649,
            0.9681,
            0.9714,
            0.9747,
            0.978,
            0.9813,
            0.9847,
            0.9881,
            0.9914,
            0.9948,
            0.9982,
            1.0017,
            1.0051,
            1.0086,
            1.0121,
            1.0156,
            1.0191,
            1.0226,
            1.0262,
            1.0298,
            1.0334,
            1.037,
            1.0406,
            1.0443,
            1.0479,
            1.0516,
            1.0553,
            1.0591,
            1.0628,
            1.0666,
            1.0704,
            1.0742,
            1.078,
            1.0819,
            1.0857,
            1.0896,
            1.0935,
            1.0975,
            1.1014,
            1.1054,
            1.1094,
            1.1134,
            1.1175,
            1.1215,
            1.1256,
            1.1297,
            1.1338,
            1.138,
            1.1422,
            1.1464,
            1.1506,
            1.1548,
            1.1591,
            1.1634,
            1.1677,
            1.1721,
            1.1764,
            1.1808,
            1.1852,
            1.1897,
            1.1942,
            1.1986,
            1.2032,
            1.2077,
            1.2123,
            1.2169,
            1.2215,
            1.2261,
            1.2308,
            1.2355,
            1.2402,
            1.245,
            1.2498,
            1.2546,
            1.2594,
            1.2643,
            1.2692,
            1.2741,
            1.279,
            1.284,
            1.289,
            1.294,
            1.2991,
            1.3042,
            1.3093,
            1.3145,
            1.3197,
            1.3249,
            1.3301,
            1.3354,
            1.3407,
            1.3461,
            1.3515,
            1.3569,
            1.3623,
            1.3678,
            1.3733,
            1.3788,
            1.3844,
            1.39,
            1.3957,
            1.4013,
            1.407,
            1.4128,
            1.4186,
            1.4244,
            1.4302,
            1.4361,
            1.442,
            1.448,
            1.454,
            1.46,
            1.4661,
            1.4722,
            1.4784,
            1.4846,
            1.4908,
            1.4971,
            1.5034,
            1.5097,
            1.5161,
            1.5225,
            1.529,
            1.5355,
            1.5421,
            1.5487,
            1.5553,
            1.562,
            1.5687,
            1.5755,
            1.5823,
            1.5891,
            1.596,
            1.603,
            1.61,
            1.617,
            1.6241,
            1.6312,
            1.6384,
            1.6456,
            1.6529,
            1.6602,
            1.6676,
            1.675,
            1.6824,
            1.69,
            1.6975,
            1.7051,
            1.7128,
            1.7205,
            1.7283,
            1.7361,
            1.744,
            1.7519,
            1.7599,
            1.768,
            1.7761,
            1.7842,
            1.7924,
            1.8007,
            1.809,
            1.8174,
            1.8258,
            1.8343,
            1.8429,
            1.8515,
            1.8602,
            1.8689,
            1.8777,
            1.8866,
            1.8955,
            1.9045,
            1.9136,
            1.9227,
            1.9319,
            1.9412,
            1.9505,
            1.9599,
            1.9693,
            1.9788,
            1.9884,
            1.9981,
            2.0078,
            2.0176,
            2.0275,
            2.0375,
            2.0475,
            2.0576,
            2.0677,
            2.078,
            2.0883,
            2.0987,
            2.1092,
            2.1198,
            2.1304,
            2.1411,
            2.1519,
            2.1628,
            2.1738,
            2.1848,
            2.1959,
            2.2072,
            2.2185,
            2.2299,
            2.2413,
            2.2529,
            2.2646,
            2.2763,
            2.2882,
            2.3001,
            2.3121,
            2.3242,
            2.3365,
            2.3488,
            2.3612,
            2.3737,
            2.3863,
            2.399,
            2.4118,
            2.4247,
            2.4378,
            2.4509,
            2.4641,
            2.4775,
            2.4909,
            2.5045,
            2.5181,
            2.5319,
            2.5458,
            2.5598,
            2.574,
            2.5882,
            2.6026,
            2.6171,
            2.6317,
            2.6464,
            2.6612,
            2.6762,
            2.6913,
            2.7066,
            2.7219,
            2.7374,
            2.753,
            2.7688,
            2.7847,
            2.8007,
            2.8169,
            2.8332,
            2.8497,
            2.8663,
            2.883,
            2.8999,
            2.917,
            2.9342,
            2.9515,
            2.969,
            2.9867,
            3.0045,
            3.0225,
            3.0406,
            3.0589,
            3.0774,
            3.096,
            3.1148,
            3.1338,
            3.1529,
            3.1723,
            3.1918,
            3.2115,
            3.2313,
            3.2514,
            3.2716,
            3.2921,
            3.3127,
            3.3335,
            3.3545,
            3.3758,
            3.3972,
            3.4188,
            3.4406,
            3.4627,
            3.4849,
            3.5074,
            3.5301,
            3.553,
            3.5762,
            3.5995,
            3.6231,
            3.6469,
            3.671,
            3.6953,
            3.7199,
            3.7447,
            3.7697,
            3.795,
            3.8205,
            3.8463,
            3.8724,
            3.8988,
            3.9254,
            3.9522,
            3.9794,
            4.0068,
            4.0346,
            4.0626,
            4.0909,
            4.1195,
            4.1484,
            4.1776,
            4.2072,
            4.237,
            4.2672,
            4.2976,
            4.3285,
            4.3596,
            4.3911,
            4.4229,
            4.4551,
            4.4876,
            4.5205,
            4.5538,
            4.5874,
            4.6214,
            4.6557,
            4.6905,
            4.7257,
            4.7612,
            4.7972,
            4.8335,
            4.8703,
            4.9075,
            4.9451,
            4.9832,
            5.0217,
            5.0607,
            5.1001,
            5.14,
            5.1803,
            5.2211,
            5.2625,
            5.3043,
            5.3466,
            5.3894,
            5.4327,
            5.4766,
            5.521,
            5.5659,
            5.6114,
            5.6575,
            5.7041,
            5.7513,
            5.7991,
            5.8475,
            5.8965,
            5.9461,
            5.9964,
            6.0473,
            6.0989,
            6.1511,
            6.204,
            6.2576,
            6.3118,
            6.3668,
            6.4225,
            6.479,
            6.5362,
            6.5942,
            6.6529,
            6.7125,
            6.7728,
            6.834,
            6.896,
            6.9588,
            7.0225,
            7.0871,
            7.1526,
            7.219,
            7.2864,
            7.3547,
            7.424,
            7.4942,
            7.5655,
            7.6378,
            7.7111,
            7.7855,
            7.861,
            7.9375,
            8.0153,
            8.0941,
            8.1742,
            8.2554,
            8.3379,
            8.4216,
            8.5066,
            8.5929,
            8.6805,
            8.7695,
            8.8598,
            8.9516,
            9.0447,
            9.1394,
            9.2356,
            9.3333,
            9.4326,
            9.5334,
            9.636,
            9.7401,
            9.846,
            9.9536,
            10.0631,
            10.1743,
            10.2874,
            10.4024,
            10.5194,
            10.6383,
            10.7593,
            10.8823,
            11.0076,
            11.135,
            11.2646,
            11.3965,
            11.5308,
            11.6675,
            11.8066,
            11.9483,
            12.0925,
            12.2394,
            12.389,
            12.5413,
            12.6966,
            12.8547,
            13.0159,
            13.1801,
            13.3474,
            13.518,
            13.6919,
            13.8693,
            14.05,
            14.2344,
            14.4225,
            14.6143,
            14.81,
            15.0097,
            15.2135,
            15.4216,
            15.6339,
            15.8507,
            16.0721,
            16.2982,
            16.5292,
            16.7651,
            17.0062,
            17.2526,
            17.5043,
            17.7617,
            18.0249,
            18.2941,
            18.5693,
            18.8509,
            19.139,
            19.4339,
            19.7356,
            20.0445,
            20.3609,
            20.6848,
            21.0166,
            21.3565,
            21.705,
            22.0621,
            22.4281,
            22.8035,
            23.1885,
            23.5834,
            23.9886,
            24.4046,
            24.8315,
            25.27,
            25.7203,
            26.1829,
            26.6582,
            27.1469,
            27.6493,
            28.166,
            28.6975,
            29.2444,
            29.8074,
            30.3871,
            30.9841
          ],
          [
            8.385,
            8.173,
            8.114,
            8.399,
            8.376,
            8.251,
            8.383,
            8.243,
            7.992,
            8.205,
            8.118,
            8.223,
            8.304,
            8.408,
            8.041,
            8.474,
            8.236,
            8.497,
            8.239,
            8.166,
            8.348,
            8.231,
            8.021,
            8.303,
            8.132,
            8.136,
            8.036,
            8.445,
            7.984,
            8.346,
            8.107,
            8.103,
            8.014,
            8.006,
            7.955,
            7.992,
            8.126,
            8.041,
            8.141,
            7.925,
            8.254,
            8.16,
            8.273,
            7.947,
            8.146,
            8.098,
            7.976,
            8.063,
            7.834,
            7.974,
            8.055,
            8.046,
            7.907,
            8.107,
            7.91,
            7.898,
            7.954,
            8.02,
            7.882,
            8.033,
            8.023,
            8.014,
            8.12,
            8.009,
            7.874,
            8.008,
            7.977,
            7.966,
            7.978,
            7.969,
            7.961,
            8.027,
            8.028,
            7.791,
            7.897,
            7.747,
            7.887,
            7.892,
            7.772,
            7.964,
            7.973,
            7.79,
            7.917,
            8.012,
            7.972,
            7.885,
            8.019,
            7.841,
            7.886,
            7.684,
            7.845,
            7.726,
            7.742,
            7.809,
            7.658,
            7.754,
            7.754,
            7.731,
            7.858,
            7.738,
            7.632,
            7.661,
            7.646,
            7.717,
            7.886,
            7.882,
            7.718,
            7.648,
            7.637,
            7.766,
            7.794,
            7.641,
            7.768,
            7.777,
            7.705,
            7.749,
            7.782,
            7.809,
            7.557,
            7.667,
            7.571,
            7.661,
            7.699,
            7.534,
            7.558,
            7.67,
            7.624,
            7.676,
            7.529,
            7.61,
            7.695,
            7.506,
            7.59,
            7.606,
            7.499,
            7.576,
            7.594,
            7.485,
            7.47,
            7.565,
            7.471,
            7.465,
            7.539,
            7.505,
            7.534,
            7.575,
            7.533,
            7.375,
            7.336,
            7.54,
            7.485,
            7.363,
            7.403,
            7.451,
            7.303,
            7.52,
            7.389,
            7.402,
            7.426,
            7.43,
            7.516,
            7.48,
            7.319,
            7.473,
            7.374,
            7.338,
            7.469,
            7.331,
            7.337,
            7.401,
            7.312,
            7.259,
            7.38,
            7.32,
            7.195,
            7.179,
            7.38,
            7.411,
            7.335,
            7.408,
            7.211,
            7.184,
            7.304,
            7.237,
            7.231,
            7.1,
            7.226,
            7.196,
            7.279,
            7.193,
            7.234,
            7.267,
            7.236,
            7.274,
            7.267,
            7.236,
            7.163,
            7.211,
            7.257,
            6.959,
            7.25,
            7.157,
            7.034,
            7.151,
            7.164,
            7.188,
            7.164,
            7.056,
            7.075,
            7.107,
            7.126,
            7.134,
            7.079,
            7.062,
            7.14,
            7.071,
            7.039,
            7.098,
            7.098,
            7.133,
            7.114,
            7.123,
            7.183,
            7.072,
            7.0,
            7.094,
            7.083,
            7.016,
            7.028,
            6.979,
            7.034,
            7.034,
            7.031,
            7.034,
            7.017,
            6.943,
            7.05,
            6.917,
            6.988,
            6.996,
            6.989,
            6.99,
            6.909,
            6.956,
            7.046,
            7.06,
            6.93,
            6.937,
            7.073,
            6.964,
            6.891,
            6.968,
            6.932,
            6.967,
            7.02,
            6.895,
            6.943,
            6.926,
            7.005,
            6.91,
            6.933,
            6.959,
            6.878,
            6.933,
            6.935,
            6.867,
            6.9,
            6.907,
            6.885,
            6.914,
            6.936,
            6.863,
            6.981,
            6.885,
            6.856,
            6.983,
            6.799,
            6.892,
            6.92,
            6.913,
            6.86,
            6.872,
            6.834,
            6.882,
            6.852,
            6.841,
            6.817,
            6.869,
            6.84,
            6.946,
            6.816,
            6.849,
            6.95,
            6.902,
            6.86,
            6.842,
            6.95,
            6.907,
            6.858,
            6.768,
            6.769,
            6.843,
            6.891,
            6.851,
            6.861,
            6.983,
            6.936,
            6.843,
            6.826,
            6.846,
            6.771,
            6.851,
            6.881,
            6.84,
            6.905,
            6.894,
            6.83,
            6.844,
            6.897,
            6.969,
            6.872,
            6.857,
            6.799,
            6.804,
            6.836,
            6.879,
            6.81,
            6.901,
            6.89,
            6.904,
            6.847,
            6.826,
            6.894,
            6.913,
            6.853,
            6.807,
            6.941,
            6.917,
            6.898,
            6.928,
            6.927,
            6.934,
            6.864,
            6.867,
            6.907,
            6.875,
            6.871,
            6.953,
            6.992,
            6.952,
            6.859,
            6.923,
            6.931,
            6.93,
            6.905,
            6.976,
            7.01,
            6.996,
            6.967,
            6.925,
            6.971,
            6.947,
            7.049,
            6.957,
            7.099,
            6.909,
            6.993,
            7.02,
            7.031,
            6.937,
            6.95,
            6.97,
            7.006,
            7.022,
            7.013,
            6.986,
            7.029,
            7.084,
            7.001,
            7.015,
            7.057,
            7.065,
            7.106,
            7.054,
            7.117,
            7.001,
            7.039,
            7.125,
            7.08,
            7.146,
            7.058,
            7.096,
            7.096,
            7.146,
            7.11,
            7.136,
            7.098,
            7.139,
            7.152,
            7.136,
            7.142,
            7.146,
            7.246,
            7.147,
            7.184,
            7.223,
            7.17,
            7.232,
            7.253,
            7.24,
            7.227,
            7.202,
            7.189,
            7.161,
            7.24,
            7.34,
            7.364,
            7.277,
            7.308,
            7.354,
            7.269,
            7.384,
            7.338,
            7.323,
            7.338,
            7.296,
            7.389,
            7.304,
            7.341,
            7.392,
            7.376,
            7.432,
            7.379,
            7.441,
            7.338,
            7.406,
            7.503,
            7.483,
            7.446,
            7.493,
            7.533,
            7.477,
            7.45,
            7.503,
            7.499,
            7.532,
            7.518,
            7.526,
            7.534,
            7.554,
            7.605,
            7.559,
            7.572,
            7.631,
            7.538,
            7.601,
            7.629,
            7.569,
            7.564,
            7.59,
            7.637,
            7.648,
            7.677,
            7.619,
            7.663,
            7.633,
            7.667,
            7.674,
            7.692,
            7.834,
            7.814,
            7.725,
            7.725,
            7.745,
            7.768,
            7.635,
            7.846,
            7.708,
            7.746,
            7.786,
            7.77,
            7.813,
            7.724,
            7.712,
            7.89,
            7.855,
            7.871,
            7.772,
            7.823,
            7.825,
            7.784,
            7.896,
            7.782,
            7.891,
            7.921,
            7.849,
            7.942,
            7.966,
            8.045,
            7.943,
            7.926,
            8.001,
            7.968,
            7.988,
            7.944,
            7.941,
            7.99,
            7.896,
            8.057,
            7.943,
            7.99,
            7.971,
            7.783,
            7.942,
            7.818,
            8.033,
            8.043,
            7.93,
            7.992,
            7.881,
            8.006,
            8.034,
            8.027,
            7.958,
            7.967,
            7.918,
            8.084,
            8.014,
            7.928,
            7.93,
            7.983,
            8.051,
            7.98,
            7.908,
            7.982,
            7.898,
            7.825,
            7.833,
            7.932,
            7.813,
            7.887,
            7.858,
            7.906,
            7.786,
            7.958,
            7.857,
            7.871,
            7.848,
            7.816,
            7.98,
            7.887,
            7.888,
            7.852,
            7.799,
            7.751,
            7.817,
            7.793,
            7.68,
            7.637,
            7.673,
            7.703,
            7.695,
            7.73,
            7.613,
            7.655,
            7.649,
            7.614,
            7.64,
            7.709,
            7.49,
            7.483,
            7.536,
            7.523,
            7.405,
            7.391,
            7.417,
            7.352,
            7.458,
            7.378,
            7.394,
            7.247,
            7.314,
            7.203,
            7.174,
            7.288,
            7.267,
            7.135,
            7.116,
            7.023,
            7.059,
            6.978,
            6.968,
            6.987,
            6.944,
            6.919,
            6.927,
            6.954,
            6.829,
            6.837,
            6.807,
            6.719,
            6.75,
            6.712,
            6.784,
            6.627,
            6.67,
            6.64,
            6.576,
            6.543,
            6.558,
            6.571,
            6.522,
            6.457,
            6.49,
            6.387,
            6.336,
            6.475,
            6.392,
            6.382,
            6.273,
            6.278,
            6.287,
            6.271,
            6.262,
            6.158,
            6.214,
            6.213,
            6.132,
            6.023,
            6.135,
            6.071,
            6.076,
            6.081,
            6.104,
            6.014,
            6.033,
            6.064,
            5.953,
            5.914,
            5.905,
            5.998,
            5.883,
            5.861,
            5.911,
            5.877,
            5.911,
            5.844,
            5.895,
            5.873,
            5.788,
            5.872,
            5.79,
            5.776,
            5.834,
            5.796,
            5.72,
            5.91,
            5.823,
            5.739,
            5.838,
            5.845,
            5.846,
            5.886,
            5.875,
            5.903,
            5.944,
            5.934,
            5.695,
            5.75,
            5.762,
            5.981,
            6.004,
            5.971,
            6.01,
            5.857,
            6.121,
            5.932,
            6.0,
            6.123,
            6.319,
            5.974,
            6.087,
            6.05,
            6.104,
            6.331,
            6.228,
            6.197,
            6.089,
            6.223,
            6.186,
            6.494,
            6.276,
            6.377,
            6.485,
            6.277,
            6.417,
            6.406,
            6.712,
            6.236,
            5.871,
            5.994,
            6.285,
            6.492,
            6.307,
            6.506,
            6.539,
            6.718,
            6.275,
            6.399,
            6.058,
            6.562,
            6.852,
            6.271,
            6.415,
            6.922,
            6.699,
            6.053,
            6.543,
            6.002
          ],
          [
            144.0,
            144.0,
            142.0,
            139.0,
            135.0,
            133.0,
            131.0,
            132.0,
            132.0,
            133.0,
            127.0,
            127.0,
            125.0,
            125.0,
            126.0,
            130.0,
            129.0,
            135.0,
            137.0,
            139.0,
            154.0,
            158.0,
            154.0,
            144.0,
            134.0,
            130.0,
            126.0,
            123.0,
            119.0,
            122.0,
            119.0,
            115.0,
            114.0,
            115.0,
            115.0,
            115.0,
            110.0,
            109.0,
            109.0,
            108.0,
            107.0,
            105.0,
            106.0,
            105.0,
            109.0,
            108.0,
            109.0,
            110.0,
            108.0,
            109.0,
            111.0,
            109.0,
            111.0,
            109.0,
            107.0,
            105.0,
            105.0,
            102.0,
            98.0,
            97.0,
            94.0,
            92.0,
            95.0,
            98.0,
            99.0,
            97.0,
            93.0,
            90.0,
            89.0,
            88.0,
            92.0,
            92.0,
            86.0,
            82.0,
            82.0,
            80.0,
            80.0,
            80.0,
            80.0,
            84.0,
            87.0,
            86.0,
            85.0,
            85.0,
            85.0,
            86.0,
            84.0,
            82.0,
            83.0,
            83.0,
            84.0,
            84.0,
            85.0,
            87.0,
            82.0,
            82.0,
            84.0,
            83.0,
            86.0,
            90.0,
            88.0,
            83.0,
            83.0,
            87.0,
            86.0,
            83.0,
            79.0,
            77.0,
            76.0,
            75.0,
            76.0,
            76.0,
            76.0,
            74.0,
            74.0,
            73.0,
            74.0,
            72.0,
            71.0,
            71.0,
            71.0,
            70.0,
            69.0,
            68.0,
            70.0,
            70.0,
            68.0,
            68.0,
            68.0,
            68.0,
            70.0,
            70.0,
            66.0,
            66.0,
            64.0,
            68.0,
            68.0,
            70.0,
            70.0,
            67.0,
            67.0,
            65.0,
            65.0,
            63.0,
            62.0,
            63.0,
            62.0,
            61.0,
            61.0,
            62.0,
            61.0,
            61.0,
            61.0,
            64.0,
            64.0,
            63.0,
            61.0,
            62.0,
            62.0,
            59.0,
            58.0,
            60.0,
            62.0,
            62.0,
            63.0,
            64.0,
            67.0,
            69.0,
            65.0,
            63.0,
            61.0,
            60.0,
            59.0,
            58.0,
            58.0,
            57.0,
            56.0,
            57.0,
            59.0,
            58.0,
            57.0,
            56.0,
            56.0,
            56.0,
            54.0,
            54.0,
            53.0,
            52.0,
            53.0,
            52.0,
            53.0,
            54.0,
            57.0,
            53.0,
            53.0,
            54.0,
            52.0,
            52.0,
            50.0,
            50.0,
            51.0,
            51.0,
            49.0,
            48.0,
            49.0,
            48.0,
            47.0,
            46.0,
            46.0,
            46.0,
            46.0,
            45.0,
            45.0,
            45.0,
            44.0,
            45.0,
            45.0,
            45.0,
            45.0,
            47.0,
            46.0,
            44.0,
            43.0,
            45.0,
            46.0,
            47.0,
            47.0,
            45.0,
            45.0,
            46.0,
            47.0,
            47.0,
            49.0,
            48.0,
            49.0,
            49.0,
            49.0,
            50.0,
            50.0,
            50.0,
            51.0,
            52.0,
            52.0,
            53.0,
            53.0,
            52.0,
            52.0,
            51.0,
            51.0,
            52.0,
            50.0,
            49.0,
            49.0,
            50.0,
            49.0,
            47.0,
            47.0,
            46.0,
            45.0,
            44.0,
            44.0,
            42.0,
            42.0,
            41.0,
            42.0,
            43.0,
            44.0,
            43.0,
            43.0,
            44.0,
            45.0,
            48.0,
            50.0,
            49.0,
            47.0,
            45.0,
            43.0,
            43.0,
            42.0,
            42.0,
            44.0,
            44.0,
            44.0,
            44.0,
            44.0,
            44.0,
            43.0,
            43.0,
            45.0,
            43.0,
            41.7,
            41.7,
            42.2,
            43.0,
            43.2,
            42.8,
            42.2,
            43.7,
            44.4,
            45.5,
            45.0,
            43.9,
            43.7,
            46.0,
            46.1,
            46.2,
            45.6,
            45.3,
            46.5,
            45.8,
            46.0,
            47.7,
            47.3,
            48.0,
            48.2,
            48.8,
            48.8,
            48.1,
            46.4,
            45.7,
            45.9,
            47.2,
            47.1,
            45.7,
            42.6,
            40.7,
            41.1,
            42.6,
            43.3,
            43.3,
            43.3,
            43.4,
            42.5,
            41.6,
            41.1,
            40.7,
            41.2,
            42.1,
            41.8,
            40.9,
            40.6,
            39.4,
            40.0,
            39.6,
            39.5,
            38.6,
            38.3,
            38.1,
            37.7,
            38.3,
            38.7,
            39.0,
            39.6,
            39.7,
            40.3,
            39.4,
            38.5,
            38.6,
            38.2,
            38.1,
            38.5,
            39.2,
            41.9,
            42.0,
            40.4,
            39.6,
            38.2,
            38.1,
            37.6,
            37.7,
            42.0,
            40.1,
            39.1,
            38.8,
            38.2,
            38.7,
            39.6,
            39.4,
            39.1,
            39.6,
            39.8,
            39.9,
            43.1,
            42.6,
            41.8,
            41.1,
            41.1,
            41.8,
            41.1,
            40.3,
            39.5,
            38.6,
            38.4,
            40.2,
            39.3,
            38.2,
            39.1,
            38.3,
            38.1,
            38.6,
            39.4,
            41.4,
            41.4,
            40.7,
            40.5,
            40.6,
            39.9,
            39.9,
            38.3,
            37.9,
            38.5,
            39.5,
            39.8,
            40.3,
            40.0,
            40.0,
            41.1,
            39.8,
            40.4,
            44.5,
            43.1,
            40.3,
            40.4,
            39.8,
            39.6,
            39.6,
            40.1,
            40.9,
            40.8,
            40.8,
            40.5,
            41.1,
            41.2,
            41.1,
            40.6,
            40.7,
            40.5,
            41.4,
            41.2,
            41.3,
            42.0,
            41.0,
            41.0,
            41.0,
            41.0,
            40.0,
            41.0,
            42.0,
            44.0,
            44.0,
            44.0,
            43.0,
            43.0,
            44.0,
            45.0,
            47.0,
            47.0,
            46.0,
            47.0,
            47.0,
            49.0,
            48.0,
            46.0,
            46.0,
            46.0,
            46.0,
            47.0,
            46.0,
            46.0,
            46.0,
            47.0,
            46.0,
            46.0,
            48.0,
            49.0,
            48.0,
            48.0,
            47.0,
            48.0,
            48.0,
            49.0,
            50.0,
            51.0,
            51.0,
            53.0,
            52.0,
            49.0,
            49.0,
            49.0,
            48.0,
            48.0,
            49.0,
            49.0,
            49.0,
            50.0,
            51.0,
            51.0,
            52.0,
            54.0,
            54.0,
            54.0,
            55.0,
            55.0,
            55.0,
            55.0,
            55.0,
            56.0,
            55.0,
            55.0,
            55.0,
            56.0,
            56.0,
            57.0,
            57.0,
            57.0,
            58.0,
            57.0,
            57.0,
            57.0,
            55.0,
            56.0,
            56.0,
            56.0,
            59.0,
            57.0,
            55.0,
            55.0,
            54.0,
            53.0,
            54.0,
            54.0,
            53.0,
            53.0,
            53.0,
            52.0,
            51.0,
            51.0,
            52.0,
            53.0,
            53.0,
            51.0,
            51.0,
            51.0,
            52.0,
            52.0,
            51.0,
            49.0,
            49.0,
            48.0,
            49.0,
            49.0,
            49.0,
            48.0,
            48.0,
            47.0,
            46.0,
            45.0,
            46.0,
            46.0,
            45.0,
            45.0,
            45.0,
            44.0,
            45.0,
            45.0,
            46.0,
            48.0,
            46.0,
            45.0,
            45.0,
            45.0,
            45.0,
            45.0,
            43.0,
            42.0,
            42.0,
            42.0,
            44.0,
            44.0,
            43.0,
            42.0,
            41.0,
            41.0,
            41.0,
            41.0,
            40.0,
            40.0,
            40.0,
            40.0,
            40.0,
            40.0,
            40.0,
            40.0,
            40.0,
            39.0,
            39.0,
            39.0,
            38.0,
            38.0,
            38.0,
            38.0,
            38.0,
            38.0,
            38.0,
            38.0,
            39.0,
            39.0,
            40.0,
            40.0,
            41.0,
            41.0,
            40.0,
            40.0,
            41.0,
            42.0,
            42.0,
            42.0,
            41.0,
            40.0,
            41.0,
            41.0,
            42.0,
            42.0,
            42.0,
            42.0,
            43.0,
            44.0,
            44.0,
            44.0,
            44.0,
            45.0,
            45.0,
            46.0,
            47.0,
            48.0,
            48.0,
            49.0,
            50.0,
            50.0,
            51.0,
            52.0,
            53.0,
            54.0,
            54.0,
            54.0,
            55.0,
            56.0,
            57.0,
            58.0,
            59.0,
            60.0,
            61.0,
            62.0,
            63.0,
            64.0,
            65.0,
            66.0,
            67.0,
            68.0,
            69.0,
            71.0,
            72.0,
            72.0,
            74.0,
            75.0,
            77.0,
            78.0,
            79.0,
            80.0,
            82.0,
            83.0,
            85.0,
            86.0,
            87.0,
            90.0,
            91.0,
            92.0,
            95.0,
            96.0,
            99.0,
            99.0,
            102.0,
            104.0,
            107.0,
            108.0,
            111.0,
            114.0,
            116.0,
            121.0,
            124.0,
            127.0,
            129.0,
            135.0,
            137.0,
            138.0,
            145.0,
            149.0,
            155.0,
            160.0,
            161.0,
            163.0,
            174.0,
            177.0,
            184.0,
            187.0,
            197.0,
            202.0,
            212.0,
            221.0,
            225.0,
            238.0,
            253.0,
            255.0,
            270.0,
            291.0,
            316.0,
            313.0,
            348.0,
            355.0
          ]
        ]
      }
    }
  }
}