{
  "entry": "C0755",
  "last_updated": "2014-01-13",
  "number_of_revisions": "4",
  "histories": [
    {
      "x4_code": "(20001201C)",
      "free_txt": [
        " VM"
      ]
    },
    {
      "x4_code": "(20130627A)",
      "free_txt": [
        " BP: Corrections according last EXFOR rules",
        "and Dict. Updated bib section, digitized Fig. 3-6,",
        "added table resonance data."
      ]
    }
  ],
  "bib_record": {
    "title": "Elastic scattering of alpha particles by N15",
    "authors": [
      {
        "name": "H.Smotrich"
      },
      {
        "name": "K.W.Jones"
      },
      {
        "name": "L.C.Mcdermott"
      },
      {
        "name": "R.E.Benenson"
      }
    ],
    "institutes": [
      {
        "x4_code": "(1USACOL)",
        "free_txt": []
      }
    ],
    "references": {
      "0": [
        {
          "x4_code": "(J,PR,122,232,1961)",
          "free_txt": [
            "#doi:10.1103/PhysRev.122.232"
          ],
          "publication_year": "1961"
        }
      ]
    },
    "facilities": {
      "0": [
        {
          "x4_code": "(VDG,1USACOL)",
          "free_txt": [],
          "facility_type": "(VDG)",
          "institute": "(1USACOL)"
        }
      ]
    }
  },
  "data_tables": {
    "001": {
      "common": {
        "heads": [
          "EN-ERR",
          "EN-RSL"
        ],
        "units": [
          "PER-CENT",
          "PER-CENT"
        ],
        "data": [
          [
            0.1
          ],
          [
            0.1
          ]
        ]
      }
    },
    "002": {
      "reaction": {
        "0": {
          "x4_code": "(7-N-15(A,EL)7-N-15,,DA)",
          "0": {
            "code": [
              "7-N-15",
              [
                "A,EL"
              ],
              "7-N-15,,DA"
            ],
            "type": null,
            "target": "7-N-15",
            "process": "A,EL",
            "sf49": "7-N-15,,DA",
            "sf4": "7-N-15",
            "sf5": null,
            "sf6": "DA",
            "sf7": null,
            "sf8": null,
            "sf9": null
          },
          "type": null,
          "free_text": ""
        }
      },
      "common": {
        "heads": [
          "ANG-CM",
          "ERR-T",
          "ERR-S",
          "ERR-1",
          "ERR-2",
          "ERR-4",
          "ERR-5"
        ],
        "units": [
          "ADEG",
          "PER-CENT",
          "PER-CENT",
          "PER-CENT",
          "PER-CENT",
          "PER-CENT",
          "PER-CENT"
        ],
        "data": [
          [
            169.1
          ],
          [
            6.2
          ],
          [
            3.0
          ],
          [
            0.28
          ],
          [
            1.0
          ],
          [
            0.7
          ],
          [
            0.5
          ]
        ]
      },
      "data": {
        "heads": [
          "EN",
          "DATA-CM"
        ],
        "units": [
          "MEV",
          "MB/SR"
        ],
        "data": [
          [
            1.745,
            1.749,
            1.75,
            1.75,
            1.753,
            1.754,
            1.755,
            1.755,
            1.756,
            1.758,
            1.761,
            1.765,
            1.769,
            1.772,
            1.774,
            1.779,
            1.782,
            1.785,
            1.791,
            1.794,
            1.8,
            1.818,
            1.823,
            1.83,
            1.838,
            1.843,
            1.846,
            1.849,
            1.851,
            1.858,
            1.863,
            1.865,
            1.868,
            1.871,
            1.874,
            1.875,
            1.876,
            1.881,
            1.884,
            1.887,
            1.891,
            1.895,
            1.897,
            1.901,
            1.908,
            1.916,
            1.927,
            1.937,
            1.944,
            1.95,
            1.955,
            1.96,
            1.964,
            1.975,
            1.976,
            1.979,
            1.984,
            1.99,
            1.997,
            2.004,
            2.013,
            2.017,
            2.023,
            2.031,
            2.038,
            2.042,
            2.045,
            2.051,
            2.054,
            2.062,
            2.063,
            2.068,
            2.071,
            2.075,
            2.081,
            2.086,
            2.087,
            2.091,
            2.094,
            2.099,
            2.102,
            2.106,
            2.109,
            2.112,
            2.116,
            2.12,
            2.126,
            2.13,
            2.133,
            2.14,
            2.144,
            2.148,
            2.154,
            2.157,
            2.161,
            2.164,
            2.167,
            2.17,
            2.174,
            2.177,
            2.182,
            2.184,
            2.189,
            2.195,
            2.199,
            2.203,
            2.208,
            2.213,
            2.218,
            2.221,
            2.225,
            2.23,
            2.233,
            2.235,
            2.239,
            2.241,
            2.246,
            2.249,
            2.253,
            2.254,
            2.26,
            2.263,
            2.266,
            2.268,
            2.27,
            2.274,
            2.282,
            2.289,
            2.293,
            2.296,
            2.299,
            2.303,
            2.307,
            2.309,
            2.314,
            2.317,
            2.322,
            2.323,
            2.328,
            2.33,
            2.334,
            2.338,
            2.342,
            2.346,
            2.351,
            2.353,
            2.357,
            2.36,
            2.363,
            2.369,
            2.373,
            2.374,
            2.378,
            2.383,
            2.387,
            2.391,
            2.394,
            2.397,
            2.402,
            2.405,
            2.408,
            2.413,
            2.418,
            2.421,
            2.424,
            2.428,
            2.431,
            2.435,
            2.439,
            2.441,
            2.448,
            2.453,
            2.455,
            2.459,
            2.461,
            2.467,
            2.469,
            2.474,
            2.478,
            2.482,
            2.485,
            2.488,
            2.493,
            2.498,
            2.502,
            2.505,
            2.509,
            2.514,
            2.516,
            2.522,
            2.526,
            2.53,
            2.532,
            2.538,
            2.544,
            2.547,
            2.55,
            2.554,
            2.558,
            2.563,
            2.569,
            2.572,
            2.577,
            2.581,
            2.584,
            2.59,
            2.591,
            2.594,
            2.598,
            2.604,
            2.607,
            2.607,
            2.609,
            2.609,
            2.61,
            2.615,
            2.617,
            2.618,
            2.622,
            2.626,
            2.631,
            2.632,
            2.635,
            2.636,
            2.637,
            2.638,
            2.644,
            2.644,
            2.647,
            2.65,
            2.651,
            2.653,
            2.658,
            2.659,
            2.665,
            2.668,
            2.673,
            2.678,
            2.683,
            2.686,
            2.691,
            2.694,
            2.699,
            2.703,
            2.707,
            2.711,
            2.714,
            2.719,
            2.724,
            2.73,
            2.737,
            2.741,
            2.744,
            2.748,
            2.753,
            2.758,
            2.759,
            2.764,
            2.768,
            2.771,
            2.774,
            2.777,
            2.777,
            2.781,
            2.783,
            2.787,
            2.789,
            2.795,
            2.798,
            2.804,
            2.806,
            2.811,
            2.811,
            2.816,
            2.819,
            2.824,
            2.827,
            2.831,
            2.836,
            2.837,
            2.839,
            2.842,
            2.846,
            2.85,
            2.853,
            2.859,
            2.864,
            2.866,
            2.869,
            2.871,
            2.873,
            2.876,
            2.877,
            2.878,
            2.88,
            2.882,
            2.886,
            2.886,
            2.887,
            2.89,
            2.892,
            2.895,
            2.896,
            2.902,
            2.907,
            2.911,
            2.915,
            2.917,
            2.919,
            2.922,
            2.925,
            2.925,
            2.929,
            2.93,
            2.932,
            2.935,
            2.936,
            2.937,
            2.938,
            2.94,
            2.946,
            2.95,
            2.951,
            2.952,
            2.952,
            2.956,
            2.957,
            2.962,
            2.968,
            2.971,
            2.975,
            2.982,
            2.986,
            2.99,
            2.995,
            3.001,
            3.006,
            3.011,
            3.016,
            3.019,
            3.022,
            3.024,
            3.029,
            3.032,
            3.036,
            3.041,
            3.046,
            3.05,
            3.054,
            3.057,
            3.062,
            3.067,
            3.074,
            3.076,
            3.081,
            3.084,
            3.089,
            3.093,
            3.1,
            3.101,
            3.103,
            3.107,
            3.11,
            3.113,
            3.116,
            3.12,
            3.124,
            3.129,
            3.134,
            3.139,
            3.142,
            3.148,
            3.153,
            3.153,
            3.155,
            3.159,
            3.165,
            3.168,
            3.171,
            3.176,
            3.181,
            3.182,
            3.185,
            3.187,
            3.188,
            3.19,
            3.192,
            3.198,
            3.201,
            3.201,
            3.205,
            3.208,
            3.211,
            3.216,
            3.217,
            3.22,
            3.22,
            3.22,
            3.227,
            3.227,
            3.228,
            3.228,
            3.231,
            3.235,
            3.242,
            3.244,
            3.248,
            3.252,
            3.258,
            3.262,
            3.268,
            3.271,
            3.275,
            3.276,
            3.281,
            3.284,
            3.288,
            3.293,
            3.295,
            3.299,
            3.302,
            3.308,
            3.31,
            3.32,
            3.324,
            3.329,
            3.333,
            3.338,
            3.341,
            3.345,
            3.351,
            3.355,
            3.36,
            3.363,
            3.369,
            3.375,
            3.379,
            3.381,
            3.385,
            3.392,
            3.397,
            3.4,
            3.406,
            3.414,
            3.418,
            3.422,
            3.427,
            3.433,
            3.438,
            3.443,
            3.448,
            3.451,
            3.456,
            3.459,
            3.466,
            3.47,
            3.474,
            3.478,
            3.484,
            3.488,
            3.489,
            3.493,
            3.495,
            3.501,
            3.501,
            3.508,
            3.515,
            3.521,
            3.521,
            3.521,
            3.523,
            3.528,
            3.529,
            3.53,
            3.533,
            3.534,
            3.536,
            3.543,
            3.551,
            3.559,
            3.562,
            3.566,
            3.568,
            3.573,
            3.573,
            3.579,
            3.58,
            3.582,
            3.583,
            3.587,
            3.589,
            3.59,
            3.595,
            3.6,
            3.604,
            3.61,
            3.614,
            3.619,
            3.625,
            3.625,
            3.631,
            3.631,
            3.641,
            3.647,
            3.651,
            3.66,
            3.664,
            3.67,
            3.673,
            3.679,
            3.685,
            3.689,
            3.694,
            3.699,
            3.7,
            3.702,
            3.706,
            3.707,
            3.707,
            3.711,
            3.717,
            3.719,
            3.724,
            3.729,
            3.732,
            3.736,
            3.742,
            3.747,
            3.751,
            3.757,
            3.759,
            3.767,
            3.769,
            3.775,
            3.779,
            3.784,
            3.786,
            3.794,
            3.796,
            3.802,
            3.807,
            3.811,
            3.816,
            3.82,
            3.826,
            3.831,
            3.835,
            3.839,
            3.845,
            3.852,
            3.855,
            3.861,
            3.865,
            3.87,
            3.879,
            3.884,
            3.888,
            3.892,
            3.898,
            3.904,
            3.908,
            3.912,
            3.917,
            3.921,
            3.927,
            3.933,
            3.937,
            3.941,
            3.947,
            3.95,
            3.956,
            3.96,
            3.966,
            3.97,
            3.976,
            3.98,
            3.985,
            3.99,
            3.995,
            4.001,
            4.004,
            4.009,
            4.015,
            4.019,
            4.024,
            4.029,
            4.035,
            4.038,
            4.044,
            4.05,
            4.053,
            4.059,
            4.062,
            4.068,
            4.073,
            4.077,
            4.082,
            4.088,
            4.094,
            4.097,
            4.1,
            4.104,
            4.11,
            4.114,
            4.119,
            4.12,
            4.122,
            4.123,
            4.128,
            4.129,
            4.133,
            4.134,
            4.141,
            4.143,
            4.147,
            4.153,
            4.156,
            4.162,
            4.167,
            4.172,
            4.176,
            4.182,
            4.187,
            4.191,
            4.196,
            4.202,
            4.208,
            4.21,
            4.217,
            4.222,
            4.227,
            4.232,
            4.237,
            4.242,
            4.246,
            4.252,
            4.257,
            4.261,
            4.265,
            4.27,
            4.275,
            4.28,
            4.286,
            4.29,
            4.296,
            4.301,
            4.305,
            4.312,
            4.319,
            4.323,
            4.327,
            4.332,
            4.337,
            4.339,
            4.341,
            4.345,
            4.346,
            4.352,
            4.354,
            4.358,
            4.364,
            4.368,
            4.373,
            4.377,
            4.385,
            4.388,
            4.396,
            4.396,
            4.402,
            4.405,
            4.408,
            4.411,
            4.415,
            4.42,
            4.424,
            4.424,
            4.428,
            4.433,
            4.435,
            4.438,
            4.442,
            4.446,
            4.448,
            4.456,
            4.459,
            4.465,
            4.476,
            4.479,
            4.483,
            4.485,
            4.488,
            4.491,
            4.495,
            4.501,
            4.503,
            4.507,
            4.513,
            4.522,
            4.525,
            4.532,
            4.535,
            4.541,
            4.547,
            4.552,
            4.556,
            4.562,
            4.566,
            4.571,
            4.578,
            4.582,
            4.587,
            4.593,
            4.603,
            4.608,
            4.614,
            4.619,
            4.626,
            4.63,
            4.635,
            4.641,
            4.645,
            4.649,
            4.656,
            4.661,
            4.666,
            4.671,
            4.678,
            4.682,
            4.687,
            4.693,
            4.697,
            4.703,
            4.713,
            4.718,
            4.723,
            4.728,
            4.729,
            4.734,
            4.738,
            4.741,
            4.747,
            4.751,
            4.754,
            4.758,
            4.762,
            4.766,
            4.773,
            4.776,
            4.777,
            4.779,
            4.782,
            4.786,
            4.788,
            4.791,
            4.795,
            4.797,
            4.8,
            4.804,
            4.812,
            4.82,
            4.827,
            4.831,
            4.832,
            4.838,
            4.842,
            4.847,
            4.853,
            4.856,
            4.863,
            4.868,
            4.871,
            4.873,
            4.875,
            4.88,
            4.886,
            4.89,
            4.895,
            4.897,
            4.901,
            4.905,
            4.907,
            4.91,
            4.914,
            4.917,
            4.92,
            4.925,
            4.93,
            4.934,
            4.939,
            4.941,
            4.946,
            4.949,
            4.954,
            4.957,
            4.961,
            4.966,
            4.97,
            4.974,
            4.977,
            4.982,
            4.987,
            4.991,
            4.995,
            4.998,
            4.998,
            5.002,
            5.005,
            5.007,
            5.011,
            5.014,
            5.015,
            5.02,
            5.022,
            5.024,
            5.027,
            5.031,
            5.034,
            5.041,
            5.044,
            5.05,
            5.052,
            5.057,
            5.063,
            5.069,
            5.073,
            5.079,
            5.084,
            5.091,
            5.096,
            5.1,
            5.102,
            5.104,
            5.108,
            5.111,
            5.114,
            5.117,
            5.119,
            5.122,
            5.126,
            5.129,
            5.134,
            5.142,
            5.145,
            5.151,
            5.156,
            5.161,
            5.167,
            5.173,
            5.178,
            5.184,
            5.189,
            5.194,
            5.2,
            5.206,
            5.213,
            5.217,
            5.218,
            5.221,
            5.227,
            5.229,
            5.235,
            5.24,
            5.242,
            5.247,
            5.251,
            5.255,
            5.262,
            5.267,
            5.273,
            5.275,
            5.279,
            5.283,
            5.287,
            5.288,
            5.297,
            5.301,
            5.307,
            5.314,
            5.318,
            5.326,
            5.333,
            5.339,
            5.344,
            5.349,
            5.354,
            5.359,
            5.362,
            5.368,
            5.373,
            5.378,
            5.382,
            5.387,
            5.392,
            5.397,
            5.403,
            5.408,
            5.416,
            5.424,
            5.428,
            5.434,
            5.44,
            5.444,
            5.45,
            5.454,
            5.46,
            5.467,
            5.472,
            5.478,
            5.485
          ],
          [
            135.876,
            134.429,
            139.165,
            130.79,
            141.358,
            130.802,
            138.815,
            134.809,
            127.166,
            128.993,
            133.37,
            135.565,
            136.669,
            130.486,
            127.943,
            137.059,
            130.512,
            134.891,
            127.26,
            122.534,
            121.095,
            122.6,
            117.514,
            114.984,
            111.364,
            111.742,
            106.288,
            90.273,
            84.452,
            80.828,
            71.738,
            52.078,
            41.89,
            22.6,
            56.109,
            117.29,
            167.549,
            205.07,
            194.153,
            174.497,
            161.761,
            154.854,
            159.23,
            146.13,
            141.05,
            133.79,
            131.27,
            125.836,
            124.032,
            123.684,
            122.969,
            122.255,
            119.353,
            112.464,
            110.647,
            108.47,
            104.842,
            110.684,
            102.326,
            103.074,
            101.279,
            105.294,
            104.219,
            104.603,
            103.166,
            101.355,
            98.087,
            103.201,
            99.931,
            105.051,
            99.957,
            97.055,
            100.706,
            96.713,
            96.362,
            98.561,
            94.195,
            93.476,
            94.577,
            94.59,
            91.323,
            97.523,
            94.255,
            98.267,
            97.914,
            97.198,
            96.849,
            91.761,
            96.505,
            92.154,
            97.262,
            94.359,
            93.648,
            91.471,
            89.298,
            95.132,
            94.047,
            88.593,
            93.337,
            95.167,
            94.815,
            91.543,
            90.831,
            87.205,
            89.399,
            85.041,
            87.238,
            85.069,
            85.447,
            82.541,
            82.915,
            82.565,
            79.295,
            90.59,
            85.501,
            88.422,
            90.621,
            85.895,
            84.448,
            86.999,
            79.732,
            77.192,
            83.391,
            80.117,
            78.668,
            77.95,
            75.786,
            80.54,
            83.099,
            77.644,
            82.022,
            77.3,
            76.947,
            80.23,
            83.521,
            80.252,
            82.815,
            72.62,
            81.01,
            74.097,
            77.748,
            75.937,
            75.949,
            77.781,
            79.615,
            75.614,
            74.897,
            68.714,
            73.456,
            76.387,
            72.027,
            67.661,
            69.492,
            74.603,
            69.151,
            70.255,
            73.176,
            71.729,
            68.464,
            72.479,
            67.389,
            68.493,
            68.871,
            65.603,
            67.796,
            68.17,
            67.085,
            68.918,
            71.476,
            67.479,
            66.404,
            68.966,
            74.07,
            72.259,
            68.624,
            73.737,
            67.917,
            73.029,
            68.669,
            71.958,
            69.781,
            72.704,
            65.432,
            73.821,
            76.018,
            68.743,
            67.298,
            70.587,
            67.682,
            64.418,
            65.522,
            63.347,
            66.996,
            68.104,
            66.663,
            69.586,
            67.772,
            66.691,
            64.518,
            64.531,
            65.275,
            66.74,
            62.019,
            68.22,
            64.952,
            66.06,
            70.07,
            71.629,
            71.624,
            79.184,
            108.504,
            93.368,
            130.257,
            139.717,
            185.121,
            169.033,
            106.598,
            55.516,
            59.294,
            65.91,
            62.12,
            51.714,
            43.196,
            26.167,
            58.329,
            19.543,
            22.373,
            29.94,
            42.234,
            54.527,
            47.904,
            42.225,
            47.894,
            44.109,
            49.777,
            45.988,
            45.982,
            47.868,
            47.861,
            49.748,
            51.634,
            51.63,
            52.568,
            52.563,
            54.45,
            53.499,
            54.44,
            59.163,
            52.535,
            55.364,
            50.626,
            49.675,
            51.563,
            49.664,
            45.874,
            45.868,
            52.487,
            49.643,
            50.584,
            46.796,
            55.306,
            47.733,
            54.355,
            50.566,
            47.726,
            47.721,
            44.879,
            42.979,
            46.759,
            41.076,
            45.802,
            38.228,
            42.958,
            39.168,
            34.433,
            29.697,
            19.288,
            20.229,
            52.383,
            39.139,
            62.785,
            74.132,
            74.127,
            73.175,
            77.901,
            76.001,
            79.779,
            87.344,
            85.447,
            94.904,
            109.09,
            124.221,
            132.734,
            163.948,
            221.648,
            142.185,
            34.343,
            75.018,
            69.342,
            31.5,
            37.173,
            31.494,
            40.005,
            43.781,
            50.396,
            52.283,
            53.223,
            56.058,
            63.623,
            55.106,
            63.615,
            70.237,
            73.068,
            80.635,
            88.2,
            107.115,
            177.113,
            131.707,
            284.002,
            331.296,
            245.207,
            90.067,
            72.093,
            25.741,
            46.551,
            21.951,
            15.328,
            20.997,
            17.206,
            21.93,
            22.871,
            25.7,
            27.586,
            27.581,
            26.628,
            29.459,
            29.451,
            29.445,
            29.438,
            32.271,
            27.538,
            33.211,
            30.367,
            29.417,
            29.41,
            32.242,
            28.452,
            32.229,
            33.17,
            30.328,
            34.106,
            34.098,
            35.035,
            26.519,
            36.917,
            35.021,
            35.015,
            39.74,
            35.946,
            41.62,
            41.618,
            38.775,
            43.499,
            47.279,
            43.492,
            44.433,
            45.372,
            49.15,
            44.414,
            51.975,
            51.97,
            52.908,
            52.902,
            61.415,
            66.142,
            66.136,
            68.966,
            63.287,
            68.957,
            68.951,
            61.377,
            66.106,
            58.534,
            54.747,
            62.313,
            89.743,
            120.01,
            126.624,
            121.891,
            117.16,
            109.587,
            113.367,
            119.039,
            120.925,
            125.653,
            133.215,
            167.269,
            213.621,
            171.99,
            216.449,
            112.395,
            163.475,
            87.795,
            84.006,
            84.943,
            93.454,
            98.178,
            96.281,
            105.732,
            99.105,
            100.989,
            105.715,
            98.142,
            104.762,
            101.917,
            105.697,
            102.854,
            114.199,
            110.411,
            103.785,
            117.024,
            107.557,
            114.175,
            115.108,
            109.426,
            116.041,
            107.523,
            109.408,
            112.241,
            112.236,
            126.418,
            116.952,
            107.486,
            113.158,
            119.771,
            111.25,
            104.623,
            115.026,
            116.911,
            106.497,
            106.491,
            114.999,
            113.1,
            110.25,
            116.867,
            112.132,
            114.018,
            115.901,
            107.381,
            113.996,
            108.313,
            118.714,
            113.978,
            108.299,
            106.397,
            113.959,
            114.9,
            114.894,
            106.373,
            112.989,
            118.664,
            111.09,
            105.412,
            107.296,
            115.809,
            114.853,
            118.628,
            94.026,
            129.972,
            63.755,
            53.347,
            61.854,
            52.393,
            70.365,
            81.712,
            87.387,
            93.06,
            102.509,
            97.769,
            104.379,
            98.7,
            105.315,
            110.042,
            106.252,
            112.874,
            128.001,
            149.757,
            200.835,
            245.293,
            162.044,
            230.149,
            115.689,
            94.872,
            88.243,
            92.967,
            95.798,
            96.737,
            99.569,
            92.939,
            101.453,
            95.768,
            109.012,
            87.242,
            69.26,
            49.391,
            25.729,
            19.103,
            25.717,
            24.766,
            29.488,
            27.588,
            35.149,
            37.035,
            51.218,
            105.135,
            193.105,
            167.558,
            84.314,
            138.233,
            62.553,
            53.084,
            57.811,
            52.129,
            51.177,
            43.605,
            49.275,
            43.592,
            52.099,
            49.255,
            48.301,
            54.92,
            52.071,
            57.744,
            59.629,
            67.191,
            63.4,
            71.911,
            73.792,
            84.194,
            85.87,
            91.479,
            106.42,
            108.296,
            117.638,
            123.249,
            149.391,
            138.198,
            145.673,
            158.749,
            148.045,
            163.518,
            161.811,
            173.85,
            187.608,
            209.967,
            213.415,
            223.733,
            252.959,
            263.282,
            292.51,
            313.141,
            342.366,
            369.875,
            402.537,
            392.236,
            381.934,
            333.82,
            254.768,
            187.752,
            131.042,
            108.709,
            88.094,
            81.23,
            74.364,
            72.655,
            77.82,
            77.829,
            74.4,
            77.848,
            76.139,
            88.176,
            89.905,
            86.477,
            98.516,
            93.37,
            98.535,
            98.546,
            115.737,
            107.155,
            96.855,
            110.609,
            119.214,
            107.189,
            112.357,
            120.96,
            126.122,
            134.726,
            131.3,
            127.874,
            141.628,
            153.665,
            138.205,
            145.089,
            150.253,
            146.824,
            138.234,
            129.644,
            115.897,
            153.717,
            117.626,
            167.475,
            201.85,
            208.738,
            229.365,
            243.124,
            250.008,
            263.764,
            263.775,
            294.72,
            303.322,
            330.829,
            349.745,
            370.379,
            392.728,
            404.768,
            416.81,
            404.791,
            430.575,
            428.869,
            397.943,
            384.202,
            363.587,
            337.817,
            298.298,
            275.963,
            246.756,
            200.361,
            174.589,
            152.254,
            129.921,
            133.367,
            136.814,
            138.543,
            152.301,
            152.311,
            157.477,
            154.047,
            155.778,
            155.791,
            160.955,
            160.963,
            160.972,
            164.418,
            150.673,
            179.894,
            159.277,
            174.748,
            161.009,
            174.762,
            183.363,
            174.781,
            185.1,
            190.266,
            202.304,
            204.037,
            209.199,
            234.994,
            217.808,
            231.568,
            245.324,
            262.515,
            288.3,
            279.715,
            274.569,
            298.636,
            315.824,
            336.454,
            350.214,
            363.967,
            382.877,
            441.321,
            418.984,
            455.081,
            491.187,
            549.626,
            589.168,
            654.498,
            675.128,
            704.351,
            719.824,
            731.86,
            723.272,
            716.405,
            697.511,
            678.609,
            676.898,
            633.943,
            615.054,
            572.092,
            558.357,
            529.146,
            510.252,
            493.075,
            439.807,
            403.722,
            298.894,
            242.187,
            197.51,
            190.648,
            159.72,
            151.137,
            161.46,
            156.323,
            158.05,
            164.935,
            173.538,
            176.988,
            164.966,
            175.287,
            183.891,
            178.743,
            189.063,
            187.357,
            194.242,
            197.688,
            206.29,
            220.052,
            232.091,
            259.599,
            249.298,
            276.804,
            108.386,
            56.845,
            46.542,
            43.115,
            44.842,
            56.875,
            55.166,
            65.484,
            75.802,
            89.563,
            75.821,
            86.138,
            94.739,
            103.34,
            113.661,
            123.984,
            106.803,
            84.463,
            68.999,
            87.909,
            94.792,
            111.982,
            137.768,
            125.744,
            142.934,
            139.324,
            140.382,
            140.405,
            154.051,
            150.927,
            163.515,
            151.99,
            159.342,
            150.97,
            167.752,
            171.961,
            160.442,
            174.084,
            174.099,
            163.628,
            180.401,
            167.831,
            168.893,
            175.199,
            176.257,
            179.415,
            173.134,
            172.097,
            172.107,
            180.498,
            176.315,
            171.085,
            179.478,
            180.535,
            182.645,
            181.61,
            188.958,
            194.212,
            184.787,
            185.849,
            192.145,
            196.352,
            194.264,
            193.229,
            192.193,
            192.207,
            189.072,
            188.033,
            191.191,
            192.253,
            194.36,
            196.467,
            212.198,
            196.478,
            224.785,
            209.072,
            201.743,
            184.985,
            192.332,
            200.718,
            207.018,
            193.402,
            175.592,
            180.839,
            185.042,
            174.571,
            167.256,
            178.793,
            165.186,
            177.767,
            155.775,
            155.792,
            147.425,
            136.957,
            132.782,
            119.173,
            112.904,
            98.247,
            90.921,
            81.495,
            72.069,
            62.649,
            73.139,
            87.818,
            89.923,
            68.969,
            62.691,
            59.557,
            46.991,
            42.813,
            39.69,
            43.892,
            61.724,
            79.554,
            91.097,
            117.313,
            140.386,
            159.263,
            183.383,
            201.214,
            236.859,
            256.788,
            243.179,
            281.974,
            330.193,
            365.829,
            442.338,
            448.643,
            410.922,
            393.124,
            404.667,
            425.631,
            422.502,
            419.37,
            391.086,
            291.547,
            231.825,
            185.733,
            168.971,
            155.358,
            171.09,
            178.437,
            118.705,
            47.468,
            52.72,
            65.312,
            69.525,
            78.968,
            82.135,
            86.346,
            94.746,
            97.905,
            102.112,
            105.27,
            110.523,
            101.1,
            97.973,
            102.18,
            102.193,
            103.254,
            104.316,
            104.33,
            103.297,
            105.409,
            104.375,
            103.349,
            104.419,
            103.385,
            102.354,
            102.369,
            100.287,
            102.399,
            99.267,
            100.331,
            100.35,
            104.557,
            120.293,
            107.738
          ]
        ]
      }
    },
    "003": {
      "reaction": {
        "0": {
          "x4_code": "(7-N-15(A,EL)7-N-15,,DA)",
          "0": {
            "code": [
              "7-N-15",
              [
                "A,EL"
              ],
              "7-N-15,,DA"
            ],
            "type": null,
            "target": "7-N-15",
            "process": "A,EL",
            "sf49": "7-N-15,,DA",
            "sf4": "7-N-15",
            "sf5": null,
            "sf6": "DA",
            "sf7": null,
            "sf8": null,
            "sf9": null
          },
          "type": null,
          "free_text": ""
        }
      },
      "common": {
        "heads": [
          "ANG-CM",
          "ERR-T",
          "ERR-S",
          "ERR-1",
          "ERR-2",
          "ERR-4",
          "ERR-5"
        ],
        "units": [
          "ADEG",
          "PER-CENT",
          "PER-CENT",
          "PER-CENT",
          "PER-CENT",
          "PER-CENT",
          "PER-CENT"
        ],
        "data": [
          [
            70.0
          ],
          [
            6.2
          ],
          [
            3.0
          ],
          [
            0.28
          ],
          [
            1.0
          ],
          [
            0.7
          ],
          [
            0.5
          ]
        ]
      },
      "data": {
        "heads": [
          "EN",
          "DATA-CM"
        ],
        "units": [
          "MEV",
          "MB/SR"
        ],
        "data": [
          [
            2.403,
            2.407,
            2.414,
            2.42,
            2.424,
            2.426,
            2.434,
            2.44,
            2.445,
            2.451,
            2.458,
            2.462,
            2.468,
            2.479,
            2.485,
            2.491,
            2.495,
            2.497,
            2.501,
            2.505,
            2.51,
            2.513,
            2.518,
            2.523,
            2.526,
            2.529,
            2.533,
            2.537,
            2.542,
            2.544,
            2.549,
            2.552,
            2.555,
            2.56,
            2.564,
            2.57,
            2.574,
            2.577,
            2.58,
            2.585,
            2.589,
            2.592,
            2.598,
            2.6,
            2.605,
            2.607,
            2.614,
            2.615,
            2.617,
            2.623,
            2.627,
            2.629,
            2.632,
            2.636,
            2.64,
            2.644,
            2.647,
            2.653,
            2.657,
            2.661,
            2.664,
            2.669,
            2.673,
            2.678,
            2.681,
            2.685,
            2.693,
            2.705,
            2.718,
            2.731,
            2.743,
            2.754,
            2.765,
            2.778,
            2.791,
            2.799,
            2.807,
            2.813,
            2.825,
            2.828,
            2.835,
            2.839,
            2.843,
            2.847,
            2.851,
            2.856,
            2.861,
            2.865,
            2.873,
            2.878,
            2.882,
            2.884,
            2.885,
            2.888,
            2.891,
            2.894,
            2.895,
            2.898,
            2.902,
            2.905,
            2.908,
            2.913,
            2.916,
            2.919,
            2.923,
            2.928,
            2.934,
            2.938,
            2.941,
            2.946,
            2.947,
            2.947,
            2.95,
            2.951,
            2.956,
            2.958,
            2.961,
            2.965,
            2.969,
            2.974,
            2.995,
            3.004,
            3.015,
            3.025,
            3.037,
            3.048,
            3.058,
            3.079,
            3.09,
            3.1,
            3.111,
            3.122,
            3.133,
            3.141,
            3.15,
            3.158,
            3.162,
            3.168,
            3.172,
            3.176,
            3.179,
            3.183,
            3.188,
            3.195,
            3.196,
            3.202,
            3.202,
            3.208,
            3.214,
            3.22,
            3.221,
            3.229,
            3.231,
            3.232,
            3.239,
            3.246,
            3.253,
            3.258,
            3.262,
            3.266,
            3.272,
            3.279,
            3.289,
            3.299,
            3.309,
            3.317,
            3.326,
            3.334,
            3.344,
            3.352,
            3.361,
            3.371,
            3.375,
            3.379,
            3.387,
            3.392,
            3.398,
            3.403,
            3.41,
            3.421,
            3.43,
            3.437,
            3.448,
            3.455,
            3.461,
            3.47,
            3.475,
            3.481,
            3.492,
            3.498,
            3.502,
            3.506,
            3.512,
            3.516,
            3.52,
            3.525,
            3.529,
            3.533,
            3.538,
            3.542,
            3.546,
            3.553,
            3.556,
            3.562,
            3.567,
            3.57,
            3.576,
            3.58,
            3.584,
            3.589,
            3.594,
            3.597,
            3.6,
            3.605,
            3.609,
            3.613,
            3.618,
            3.622,
            3.627,
            3.632,
            3.635,
            3.642,
            3.646,
            3.65,
            3.655,
            3.66,
            3.666,
            3.672,
            3.676,
            3.682,
            3.685,
            3.691,
            3.696,
            3.701,
            3.704,
            3.709,
            3.716,
            3.725,
            3.731,
            3.739,
            3.743,
            3.746,
            3.751,
            3.756,
            3.766,
            3.77,
            3.776,
            3.79,
            3.81,
            3.831,
            3.84,
            3.849,
            3.859,
            3.869,
            3.877,
            3.882,
            3.888,
            3.898,
            3.906,
            3.917,
            3.927,
            3.927,
            3.935,
            3.946,
            3.95,
            3.956,
            3.959,
            3.963,
            3.971,
            3.974,
            3.981,
            3.989,
            3.999,
            4.003,
            4.01,
            4.02,
            4.029,
            4.039,
            4.048,
            4.053,
            4.058,
            4.069,
            4.078,
            4.088,
            4.097,
            4.103,
            4.109,
            4.113,
            4.118,
            4.122,
            4.127,
            4.133,
            4.136,
            4.143,
            4.147,
            4.153,
            4.167,
            4.177,
            4.188,
            4.201,
            4.205,
            4.219,
            4.226,
            4.236,
            4.251,
            4.265,
            4.277,
            4.287,
            4.295,
            4.302,
            4.308,
            4.311,
            4.316,
            4.323,
            4.33,
            4.338,
            4.346,
            4.354,
            4.357,
            4.368,
            4.377,
            4.388,
            4.398,
            4.409,
            4.418,
            4.429,
            4.439,
            4.452,
            4.459,
            4.467,
            4.47,
            4.481,
            4.487,
            4.491,
            4.495,
            4.5,
            4.506,
            4.51,
            4.516,
            4.52,
            4.527,
            4.531,
            4.538,
            4.543,
            4.549,
            4.553,
            4.559,
            4.564,
            4.569,
            4.574,
            4.578,
            4.582,
            4.589,
            4.593,
            4.598,
            4.603,
            4.608,
            4.609,
            4.614,
            4.62,
            4.625,
            4.63,
            4.635,
            4.64,
            4.647,
            4.652,
            4.656,
            4.662,
            4.666,
            4.672,
            4.678,
            4.682,
            4.687,
            4.694,
            4.698,
            4.703,
            4.708,
            4.709,
            4.714,
            4.715,
            4.717,
            4.724,
            4.728,
            4.73,
            4.732,
            4.736,
            4.742,
            4.747,
            4.752,
            4.758,
            4.761,
            4.767,
            4.773,
            4.779,
            4.784,
            4.789,
            4.794,
            4.795,
            4.8,
            4.804,
            4.81,
            4.815,
            4.82,
            4.826,
            4.832,
            4.843,
            4.854,
            4.859,
            4.865,
            4.875,
            4.885,
            4.896,
            4.907,
            4.918,
            4.928,
            4.939,
            4.95,
            4.962,
            4.972,
            4.983,
            4.995,
            5.004,
            5.015,
            5.026,
            5.037,
            5.045,
            5.056,
            5.068,
            5.077,
            5.081,
            5.092,
            5.103,
            5.114,
            5.124,
            5.136,
            5.147,
            5.157,
            5.168,
            5.18,
            5.195,
            5.202,
            5.208,
            5.214,
            5.219,
            5.224,
            5.23,
            5.235,
            5.242,
            5.247,
            5.253,
            5.257,
            5.263,
            5.269,
            5.276,
            5.28,
            5.286,
            5.292,
            5.297,
            5.303,
            5.309,
            5.314,
            5.318,
            5.324,
            5.329,
            5.336,
            5.342,
            5.348,
            5.352,
            5.357,
            5.364,
            5.37,
            5.375,
            5.379,
            5.385,
            5.391,
            5.397,
            5.409,
            5.42,
            5.426,
            5.436,
            5.448,
            5.459,
            5.469,
            5.481
          ],
          [
            685.587,
            674.249,
            677.022,
            671.327,
            676.951,
            654.329,
            675.143,
            628.792,
            641.743,
            651.945,
            651.897,
            646.74,
            641.567,
            641.486,
            631.188,
            641.39,
            628.495,
            637.854,
            635.479,
            640.141,
            630.723,
            616.628,
            628.319,
            614.21,
            635.289,
            625.885,
            602.402,
            614.099,
            625.79,
            604.667,
            616.357,
            616.327,
            604.579,
            602.196,
            588.095,
            595.087,
            585.676,
            587.992,
            592.661,
            592.624,
            601.976,
            587.882,
            587.838,
            576.096,
            576.052,
            561.965,
            564.259,
            597.087,
            613.49,
            608.756,
            599.345,
            587.596,
            559.429,
            521.874,
            521.844,
            521.815,
            549.938,
            549.894,
            556.893,
            568.591,
            559.187,
            552.114,
            549.739,
            552.048,
            549.673,
            551.989,
            547.24,
            542.461,
            537.668,
            528.191,
            528.095,
            525.669,
            530.272,
            525.486,
            516.002,
            518.288,
            513.539,
            487.688,
            480.564,
            485.233,
            482.836,
            508.599,
            513.26,
            510.885,
            515.547,
            506.128,
            506.092,
            501.364,
            482.542,
            442.634,
            447.296,
            482.462,
            508.254,
            536.376,
            566.844,
            526.943,
            552.735,
            538.641,
            529.23,
            522.172,
            519.805,
            515.077,
            505.673,
            500.953,
            493.888,
            491.506,
            486.771,
            456.252,
            425.732,
            411.623,
            467.905,
            491.359,
            545.281,
            594.527,
            603.872,
            589.785,
            575.69,
            566.279,
            552.178,
            542.752,
            528.526,
            521.416,
            514.299,
            516.564,
            507.094,
            511.704,
            488.17,
            502.081,
            494.964,
            471.437,
            471.349,
            468.923,
            459.453,
            442.977,
            438.22,
            421.736,
            409.98,
            416.972,
            402.87,
            395.805,
            381.703,
            386.364,
            372.255,
            337.023,
            355.779,
            358.08,
            376.843,
            362.72,
            343.913,
            334.487,
            306.335,
            301.578,
            313.291,
            346.119,
            324.959,
            308.49,
            313.129,
            294.322,
            310.71,
            291.918,
            291.874,
            294.168,
            272.979,
            275.251,
            277.515,
            268.075,
            265.664,
            260.907,
            258.488,
            256.084,
            258.356,
            255.937,
            258.253,
            255.879,
            258.158,
            255.776,
            251.041,
            255.695,
            250.946,
            250.865,
            255.49,
            248.395,
            253.005,
            257.644,
            250.564,
            259.872,
            252.8,
            255.101,
            250.322,
            254.969,
            266.666,
            252.565,
            254.866,
            257.182,
            254.8,
            233.655,
            226.589,
            235.942,
            242.941,
            254.639,
            254.602,
            263.932,
            252.183,
            252.139,
            252.102,
            242.692,
            249.684,
            242.618,
            228.517,
            228.48,
            256.588,
            287.048,
            279.99,
            275.263,
            268.197,
            261.132,
            254.059,
            249.332,
            246.949,
            232.84,
            218.746,
            228.076,
            199.902,
            190.484,
            174.03,
            190.411,
            197.403,
            216.122,
            225.467,
            241.84,
            253.545,
            260.538,
            267.537,
            276.882,
            283.889,
            281.507,
            283.801,
            283.735,
            293.065,
            290.661,
            307.049,
            299.991,
            295.263,
            299.91,
            297.491,
            311.534,
            295.073,
            285.581,
            264.685,
            232.03,
            217.285,
            197.284,
            181.488,
            165.688,
            148.843,
            150.929,
            145.653,
            125.649,
            118.268,
            117.179,
            118.197,
            118.197,
            126.578,
            182.251,
            199.055,
            219.005,
            211.637,
            217.93,
            209.498,
            213.692,
            210.515,
            193.671,
            200.994,
            187.317,
            198.858,
            183.058,
            189.334,
            174.585,
            176.66,
            166.133,
            175.576,
            167.13,
            160.793,
            151.303,
            149.17,
            141.792,
            147.027,
            145.963,
            150.15,
            134.371,
            131.2,
            122.775,
            142.735,
            147.967,
            130.085,
            122.707,
            116.353,
            105.812,
            104.724,
            98.374,
            109.922,
            122.491,
            141.386,
            159.221,
            169.684,
            193.811,
            211.642,
            214.761,
            224.194,
            218.915,
            216.792,
            213.632,
            213.616,
            208.336,
            203.057,
            194.622,
            192.493,
            191.418,
            180.897,
            176.655,
            164.012,
            158.72,
            146.076,
            137.63,
            139.702,
            126.001,
            117.562,
            110.16,
            118.545,
            114.314,
            126.917,
            137.393,
            147.884,
            167.841,
            181.491,
            195.138,
            217.194,
            222.435,
            231.875,
            236.065,
            239.195,
            233.926,
            228.65,
            226.531,
            229.664,
            230.702,
            230.681,
            226.46,
            239.056,
            245.349,
            254.795,
            276.854,
            283.137,
            294.685,
            287.311,
            288.345,
            287.28,
            294.634,
            283.056,
            291.444,
            284.069,
            280.899,
            282.985,
            281.917,
            279.794,
            285.032,
            276.61,
            277.641,
            272.372,
            270.25,
            270.229,
            258.654,
            244.973,
            226.034,
            213.407,
            209.186,
            220.731,
            227.034,
            233.324,
            225.963,
            215.445,
            200.707,
            208.05,
            192.278,
            180.709,
            175.444,
            164.913,
            157.538,
            151.215,
            150.143,
            137.52,
            136.449,
            128.02,
            140.616,
            155.314,
            158.45,
            155.28,
            154.908,
            149.475,
            149.466,
            147.045,
            144.022,
            144.615,
            144.001,
            148.207,
            146.981,
            137.318,
            148.154,
            138.501,
            137.88,
            134.243,
            134.222,
            127.573,
            131.166,
            129.339,
            123.894,
            123.873,
            128.069,
            120.818,
            123.206,
            118.966,
            114.73,
            114.105,
            111.07,
            107.434,
            111.636,
            107.397,
            107.374,
            116.393,
            112.771,
            120.583,
            117.549,
            146.451,
            160.29,
            169.908,
            187.361,
            172.88,
            172.255,
            154.757,
            143.883,
            130.612,
            126.985,
            117.935,
            114.309,
            96.221,
            84.159,
            83.546,
            83.533,
            73.279,
            84.114,
            99.772,
            113.017,
            133.494,
            137.699,
            149.138,
            181.063,
            188.282,
            159.951,
            151.504,
            145.467,
            144.854,
            137.615,
            137.002,
            138.799,
            142.402,
            135.158,
            130.928,
            122.485,
            127.295,
            126.077,
            123.655,
            129.672,
            123.034,
            122.42,
            121.203,
            125.409,
            120.566,
            116.327,
            123.546,
            122.321,
            117.477,
            116.852,
            112.614,
            115.604
          ]
        ]
      }
    },
    "004": {
      "reaction": {
        "0": {
          "x4_code": "(7-N-15(A,EL)7-N-15,,DA)",
          "0": {
            "code": [
              "7-N-15",
              [
                "A,EL"
              ],
              "7-N-15,,DA"
            ],
            "type": null,
            "target": "7-N-15",
            "process": "A,EL",
            "sf49": "7-N-15,,DA",
            "sf4": "7-N-15",
            "sf5": null,
            "sf6": "DA",
            "sf7": null,
            "sf8": null,
            "sf9": null
          },
          "type": null,
          "free_text": ""
        }
      },
      "common": {
        "heads": [
          "ANG-CM",
          "ERR-T",
          "ERR-S",
          "ERR-1",
          "ERR-2",
          "ERR-4",
          "ERR-5"
        ],
        "units": [
          "ADEG",
          "PER-CENT",
          "PER-CENT",
          "PER-CENT",
          "PER-CENT",
          "PER-CENT",
          "PER-CENT"
        ],
        "data": [
          [
            90.0
          ],
          [
            6.2
          ],
          [
            3.0
          ],
          [
            0.28
          ],
          [
            1.0
          ],
          [
            0.7
          ],
          [
            0.5
          ]
        ]
      },
      "data": {
        "heads": [
          "EN",
          "DATA-CM"
        ],
        "units": [
          "MEV",
          "MB/SR"
        ],
        "data": [
          [
            1.717,
            1.723,
            1.731,
            1.738,
            1.744,
            1.751,
            1.756,
            1.767,
            1.771,
            1.781,
            1.785,
            1.793,
            1.796,
            1.807,
            1.82,
            1.832,
            1.835,
            1.845,
            1.852,
            1.859,
            1.865,
            1.874,
            1.88,
            1.881,
            1.886,
            1.888,
            1.891,
            1.895,
            1.899,
            1.905,
            1.913,
            1.916,
            1.917,
            1.922,
            1.924,
            1.929,
            1.933,
            1.939,
            1.953,
            1.965,
            1.98,
            1.992,
            2.007,
            2.019,
            2.033,
            2.047,
            2.061,
            2.074,
            2.087,
            2.101,
            2.12,
            2.133,
            2.148,
            2.161,
            2.175,
            2.189,
            2.203,
            2.218,
            2.231,
            2.246,
            2.261,
            2.274,
            2.29,
            2.303,
            2.319,
            2.333,
            2.346,
            2.36,
            2.376,
            2.412,
            2.42,
            2.428,
            2.434,
            2.442,
            2.45,
            2.458,
            2.465,
            2.473,
            2.482,
            2.49,
            2.498,
            2.501,
            2.505,
            2.51,
            2.513,
            2.518,
            2.521,
            2.525,
            2.528,
            2.536,
            2.544,
            2.549,
            2.554,
            2.56,
            2.565,
            2.572,
            2.579,
            2.586,
            2.593,
            2.594,
            2.599,
            2.602,
            2.606,
            2.609,
            2.612,
            2.617,
            2.62,
            2.625,
            2.629,
            2.636,
            2.638,
            2.645,
            2.649,
            2.651,
            2.656,
            2.659,
            2.665,
            2.672,
            2.681,
            2.688,
            2.696,
            2.703,
            2.712,
            2.714,
            2.722,
            2.729,
            2.737,
            2.745,
            2.753,
            2.76,
            2.769,
            2.774,
            2.778,
            2.781,
            2.785,
            2.79,
            2.795,
            2.796,
            2.802,
            2.803,
            2.808,
            2.812,
            2.815,
            2.82,
            2.823,
            2.828,
            2.831,
            2.834,
            2.837,
            2.84,
            2.841,
            2.842,
            2.845,
            2.847,
            2.853,
            2.856,
            2.862,
            2.869,
            2.873,
            2.88,
            2.882,
            2.886,
            2.891,
            2.891,
            2.894,
            2.895,
            2.9,
            2.905,
            2.911,
            2.915,
            2.924,
            2.928,
            2.934,
            2.937,
            2.94,
            2.942,
            2.946,
            2.948,
            2.952,
            2.952,
            2.957,
            2.958,
            2.962,
            2.963,
            2.965,
            2.968,
            2.974,
            2.974,
            2.978,
            2.982,
            2.986,
            2.99,
            2.995,
            3.001,
            3.001,
            3.006,
            3.01,
            3.013,
            3.016,
            3.019,
            3.019,
            3.024,
            3.03,
            3.036,
            3.039,
            3.041,
            3.044,
            3.049,
            3.053,
            3.057,
            3.061,
            3.066,
            3.07,
            3.078,
            3.083,
            3.088,
            3.092,
            3.1,
            3.106,
            3.11,
            3.114,
            3.12,
            3.128,
            3.131,
            3.137,
            3.139,
            3.144,
            3.148,
            3.153,
            3.157,
            3.161,
            3.167,
            3.169,
            3.175,
            3.179,
            3.182,
            3.183,
            3.19,
            3.193,
            3.2,
            3.204,
            3.21,
            3.214,
            3.217,
            3.223,
            3.227,
            3.231,
            3.239,
            3.249,
            3.251,
            3.258,
            3.262,
            3.271,
            3.28,
            3.282,
            3.288,
            3.293,
            3.298,
            3.302,
            3.306,
            3.312,
            3.318,
            3.325,
            3.333,
            3.342,
            3.35,
            3.359,
            3.368,
            3.377,
            3.387,
            3.397,
            3.406,
            3.413,
            3.423,
            3.43,
            3.44,
            3.45,
            3.458,
            3.467,
            3.478,
            3.49,
            3.495,
            3.503,
            3.508,
            3.513,
            3.517,
            3.521,
            3.526,
            3.53,
            3.536,
            3.544,
            3.552,
            3.56,
            3.567,
            3.572,
            3.576,
            3.582,
            3.59,
            3.593,
            3.595,
            3.601,
            3.605,
            3.609,
            3.616,
            3.62,
            3.625,
            3.629,
            3.634,
            3.639,
            3.644,
            3.647,
            3.653,
            3.656,
            3.66,
            3.666,
            3.674,
            3.681,
            3.683,
            3.689,
            3.691,
            3.696,
            3.704,
            3.708,
            3.711,
            3.716,
            3.721,
            3.726,
            3.73,
            3.737,
            3.742,
            3.743,
            3.75,
            3.754,
            3.759,
            3.763,
            3.77,
            3.771,
            3.777,
            3.781,
            3.787,
            3.792,
            3.795,
            3.803,
            3.809,
            3.817,
            3.821,
            3.827,
            3.832,
            3.837,
            3.841,
            3.846,
            3.852,
            3.856,
            3.861,
            3.865,
            3.869,
            3.875,
            3.879,
            3.883,
            3.888,
            3.893,
            3.897,
            3.903,
            3.907,
            3.912,
            3.916,
            3.92,
            3.928,
            3.933,
            3.937,
            3.943,
            3.946,
            3.951,
            3.955,
            3.961,
            3.966,
            3.97,
            3.976,
            3.98,
            3.984,
            3.99,
            3.996,
            4.001,
            4.004,
            4.009,
            4.014,
            4.02,
            4.023,
            4.029,
            4.035,
            4.038,
            4.044,
            4.049,
            4.054,
            4.059,
            4.063,
            4.067,
            4.074,
            4.078,
            4.082,
            4.088,
            4.093,
            4.098,
            4.101,
            4.106,
            4.114,
            4.116,
            4.12,
            4.126,
            4.131,
            4.136,
            4.141,
            4.147,
            4.152,
            4.156,
            4.164,
            4.171,
            4.177,
            4.182,
            4.187,
            4.191,
            4.197,
            4.201,
            4.206,
            4.211,
            4.222,
            4.232,
            4.243,
            4.252,
            4.262,
            4.272,
            4.282,
            4.292,
            4.302,
            4.313,
            4.321,
            4.331,
            4.343,
            4.352,
            4.361,
            4.372,
            4.383,
            4.392,
            4.403,
            4.413,
            4.422,
            4.432,
            4.445,
            4.454,
            4.464,
            4.47,
            4.475,
            4.48,
            4.484,
            4.489,
            4.495,
            4.499,
            4.504,
            4.509,
            4.515,
            4.522,
            4.526,
            4.537,
            4.547,
            4.556,
            4.563,
            4.567,
            4.574,
            4.577,
            4.583,
            4.587,
            4.594,
            4.598,
            4.605,
            4.609,
            4.619,
            4.63,
            4.639,
            4.646,
            4.652,
            4.656,
            4.661,
            4.668,
            4.672,
            4.678,
            4.682,
            4.687,
            4.692,
            4.698,
            4.704,
            4.709,
            4.715,
            4.72,
            4.725,
            4.731,
            4.735,
            4.74,
            4.747,
            4.753,
            4.758,
            4.762,
            4.769,
            4.771,
            4.776,
            4.782,
            4.787,
            4.792,
            4.798,
            4.804,
            4.808,
            4.813,
            4.819,
            4.824,
            4.829,
            4.835,
            4.84,
            4.847,
            4.851,
            4.856,
            4.862,
            4.866,
            4.873,
            4.878,
            4.883,
            4.888,
            4.895,
            4.9,
            4.906,
            4.911,
            4.916,
            4.922,
            4.926,
            4.933,
            4.936,
            4.943,
            4.949,
            4.954,
            4.96,
            4.964,
            4.971,
            4.975,
            4.981,
            4.987,
            4.992,
            4.998,
            5.003,
            5.008,
            5.013,
            5.019,
            5.025,
            5.029,
            5.035,
            5.041,
            5.045,
            5.051,
            5.057,
            5.062,
            5.068,
            5.073,
            5.079,
            5.084,
            5.09,
            5.094,
            5.102,
            5.106,
            5.112,
            5.117,
            5.123,
            5.127,
            5.132,
            5.137,
            5.144,
            5.15,
            5.156,
            5.161,
            5.166,
            5.171,
            5.178,
            5.184,
            5.189,
            5.194,
            5.198,
            5.205,
            5.21,
            5.216,
            5.221,
            5.226,
            5.232,
            5.238,
            5.243,
            5.248,
            5.254,
            5.255,
            5.259,
            5.266,
            5.272,
            5.277,
            5.282,
            5.288,
            5.293,
            5.3,
            5.306,
            5.311,
            5.315,
            5.32,
            5.326,
            5.331,
            5.337,
            5.342,
            5.348,
            5.354,
            5.357,
            5.364,
            5.371,
            5.376,
            5.381,
            5.385,
            5.393,
            5.399,
            5.404,
            5.41,
            5.416
          ],
          [
            581.294,
            581.329,
            576.981,
            572.877,
            568.774,
            568.814,
            559.532,
            551.319,
            533.753,
            543.118,
            527.621,
            529.737,
            521.478,
            520.507,
            511.271,
            513.404,
            501.006,
            498.995,
            492.828,
            500.112,
            490.835,
            497.089,
            506.436,
            489.349,
            492.69,
            481.103,
            467.039,
            466.234,
            477.855,
            465.462,
            468.822,
            462.214,
            456.42,
            456.448,
            453.148,
            444.064,
            460.655,
            438.322,
            439.229,
            426.874,
            423.645,
            426.2,
            427.94,
            418.07,
            401.582,
            395.034,
            384.345,
            380.278,
            379.524,
            366.35,
            378.054,
            359.905,
            359.16,
            353.436,
            363.46,
            349.458,
            342.082,
            339.681,
            334.785,
            329.899,
            315.901,
            315.98,
            319.382,
            308.688,
            299.665,
            298.92,
            299.823,
            294.104,
            295.025,
            283.634,
            262.967,
            268.812,
            278.785,
            278.003,
            287.162,
            270.641,
            260.738,
            254.158,
            247.971,
            251.121,
            255.053,
            260.508,
            262.083,
            263.663,
            254.359,
            258.269,
            252.077,
            237.341,
            245.126,
            245.946,
            241.334,
            239.03,
            256.145,
            231.324,
            238.345,
            245.375,
            236.094,
            233.803,
            232.293,
            230.482,
            235.939,
            228.616,
            219.466,
            222.188,
            217.609,
            205.716,
            192.914,
            172.802,
            166.387,
            218.408,
            242.142,
            248.499,
            259.44,
            242.989,
            248.446,
            242.041,
            240.184,
            238.322,
            243.762,
            237.334,
            225.423,
            225.388,
            234.48,
            224.422,
            232.606,
            231.657,
            216.094,
            227.012,
            212.366,
            215.984,
            216.853,
            217.744,
            217.722,
            215.882,
            213.121,
            213.099,
            218.556,
            210.329,
            203.91,
            197.513,
            202.053,
            209.341,
            208.41,
            209.301,
            212.027,
            212.001,
            217.467,
            226.586,
            232.96,
            221.989,
            213.766,
            211.022,
            203.699,
            199.124,
            196.358,
            199.993,
            191.748,
            199.932,
            194.435,
            193.487,
            205.349,
            217.203,
            208.958,
            218.09,
            202.553,
            194.33,
            184.258,
            187.889,
            186.945,
            182.361,
            177.751,
            184.122,
            179.529,
            192.301,
            197.762,
            207.799,
            203.215,
            191.331,
            184.007,
            194.966,
            182.159,
            177.584,
            179.393,
            170.257,
            175.727,
            172.974,
            172.031,
            176.596,
            166.534,
            162.859,
            171.973,
            169.212,
            166.45,
            165.506,
            165.506,
            172.79,
            157.244,
            170.015,
            161.783,
            155.373,
            164.505,
            155.351,
            154.407,
            160.773,
            151.624,
            156.181,
            150.689,
            148.836,
            141.513,
            141.495,
            136.907,
            136.885,
            140.516,
            128.61,
            121.278,
            121.256,
            124.886,
            117.541,
            117.515,
            117.497,
            111.083,
            116.536,
            93.667,
            100.041,
            96.362,
            91.783,
            79.89,
            87.178,
            90.804,
            85.307,
            81.633,
            79.78,
            72.461,
            71.522,
            72.417,
            69.66,
            76.048,
            73.278,
            67.781,
            64.093,
            54.944,
            56.744,
            64.94,
            54.882,
            55.764,
            58.486,
            59.378,
            55.69,
            53.815,
            58.368,
            58.337,
            62.885,
            64.668,
            58.231,
            64.615,
            64.584,
            64.558,
            73.667,
            69.997,
            67.236,
            67.209,
            71.744,
            72.627,
            76.24,
            71.63,
            80.722,
            83.418,
            79.721,
            80.59,
            83.286,
            80.498,
            83.194,
            86.811,
            92.242,
            81.248,
            85.766,
            89.375,
            80.203,
            85.638,
            81.02,
            83.702,
            89.155,
            90.942,
            82.701,
            76.282,
            66.22,
            75.33,
            96.311,
            99.033,
            85.304,
            93.483,
            90.708,
            85.19,
            87.894,
            75.088,
            86.024,
            77.779,
            86.871,
            79.552,
            74.06,
            70.381,
            63.054,
            56.644,
            54.782,
            50.199,
            45.606,
            35.544,
            38.257,
            37.322,
            57.39,
            68.33,
            100.265,
            123.082,
            141.323,
            148.602,
            151.302,
            150.358,
            138.474,
            143.013,
            131.129,
            114.67,
            121.022,
            129.223,
            137.424,
            131.01,
            135.554,
            139.18,
            117.242,
            113.558,
            121.751,
            108.049,
            108.931,
            102.517,
            96.102,
            93.341,
            96.05,
            83.256,
            81.404,
            77.729,
            80.442,
            78.589,
            70.357,
            61.032,
            55.751,
            51.519,
            48.348,
            44.119,
            36.736,
            47.244,
            33.55,
            37.743,
            38.78,
            39.819,
            39.803,
            40.842,
            41.882,
            43.967,
            47.111,
            47.098,
            47.085,
            47.069,
            52.318,
            57.56,
            53.338,
            58.584,
            69.095,
            76.448,
            76.426,
            94.3,
            90.078,
            85.848,
            73.21,
            71.089,
            64.762,
            61.588,
            57.362,
            52.088,
            52.068,
            53.107,
            55.199,
            56.232,
            54.108,
            49.885,
            44.614,
            45.65,
            50.896,
            57.19,
            54.024,
            51.899,
            58.197,
            49.769,
            55.011,
            52.89,
            56.031,
            49.7,
            57.054,
            49.674,
            47.55,
            52.799,
            52.786,
            48.557,
            54.855,
            49.577,
            54.829,
            53.761,
            49.528,
            58.994,
            56.876,
            57.909,
            59.997,
            56.824,
            59.965,
            58.896,
            53.618,
            71.496,
            65.155,
            72.499,
            70.375,
            70.362,
            75.608,
            78.752,
            81.89,
            85.034,
            93.437,
            92.368,
            94.441,
            82.832,
            88.058,
            90.134,
            101.681,
            113.225,
            118.454,
            93.168,
            86.821,
            78.366,
            76.235,
            74.101,
            69.853,
            69.824,
            69.794,
            63.448,
            58.15,
            57.068,
            62.295,
            64.37,
            59.079,
            64.308,
            64.27,
            70.555,
            72.627,
            70.503,
            71.539,
            64.159,
            66.251,
            55.711,
            59.901,
            47.259,
            46.191,
            44.07,
            38.788,
            29.297,
            25.075,
            22.934,
            20.797,
            19.715,
            29.167,
            38.626,
            42.813,
            51.222,
            49.098,
            53.295,
            51.17,
            49.053,
            44.82,
            36.388,
            39.513,
            40.533,
            32.084,
            33.114,
            27.833,
            32.029,
            28.856,
            25.679,
            20.404,
            15.123,
            15.11,
            7.727,
            5.606,
            5.586,
            7.672,
            13.973,
            8.692,
            6.571,
            4.45,
            4.43,
            3.365,
            6.506,
            3.329,
            5.414,
            5.398,
            8.542,
            9.572,
            11.67,
            20.073,
            30.581,
            13.727,
            12.658,
            9.481,
            10.514,
            10.763,
            16.29,
            13.526,
            13.526,
            13.526,
            12.421,
            13.526,
            12.421,
            12.974,
            11.315,
            12.974,
            11.315,
            13.526,
            11.315,
            11.315,
            11.868,
            13.526,
            13.526,
            12.421,
            12.974,
            14.632,
            11.868,
            13.526,
            11.868,
            12.974,
            15.185,
            13.526,
            12.974,
            13.526,
            14.632,
            13.526,
            14.632,
            15.185,
            17.396,
            15.737,
            19.054,
            18.501,
            19.054,
            22.371,
            26.793,
            26.793,
            21.818,
            29.004,
            27.898,
            31.767,
            30.662,
            32.32,
            36.189,
            43.375,
            36.189,
            40.059,
            45.586,
            42.27,
            43.928,
            52.219,
            60.511,
            60.511,
            63.827,
            61.616,
            57.194,
            59.958,
            56.089,
            52.219,
            50.561,
            43.928,
            39.506,
            30.109,
            27.345,
            22.371,
            18.501,
            16.843,
            11.868,
            12.421,
            9.657,
            13.526,
            6.341,
            8.552,
            12.974,
            13.526,
            14.632,
            22.371,
            24.029,
            36.189,
            43.928,
            47.245,
            47.797,
            45.034,
            37.848,
            32.32,
            26.793,
            35.637,
            30.109,
            30.662,
            26.24,
            27.345,
            22.371,
            26.793,
            24.029,
            26.793,
            24.582,
            21.818,
            26.793,
            24.582,
            26.793,
            24.582,
            19.607,
            23.476,
            25.134,
            25.687,
            27.345,
            27.898,
            28.451,
            28.451
          ]
        ]
      }
    },
    "005": {
      "reaction": {
        "0": {
          "x4_code": "(7-N-15(A,EL)7-N-15,,DA)",
          "0": {
            "code": [
              "7-N-15",
              [
                "A,EL"
              ],
              "7-N-15,,DA"
            ],
            "type": null,
            "target": "7-N-15",
            "process": "A,EL",
            "sf49": "7-N-15,,DA",
            "sf4": "7-N-15",
            "sf5": null,
            "sf6": "DA",
            "sf7": null,
            "sf8": null,
            "sf9": null
          },
          "type": null,
          "free_text": ""
        }
      },
      "common": {
        "heads": [
          "ANG-CM",
          "ERR-T",
          "ERR-S",
          "ERR-1",
          "ERR-2",
          "ERR-4",
          "ERR-5"
        ],
        "units": [
          "ADEG",
          "PER-CENT",
          "PER-CENT",
          "PER-CENT",
          "PER-CENT",
          "PER-CENT",
          "PER-CENT"
        ],
        "data": [
          [
            125.3
          ],
          [
            6.2
          ],
          [
            3.0
          ],
          [
            0.28
          ],
          [
            1.0
          ],
          [
            0.7
          ],
          [
            0.5
          ]
        ]
      },
      "data": {
        "heads": [
          "EN",
          "DATA-CM"
        ],
        "units": [
          "MEV",
          "MB/SR"
        ],
        "data": [
          [
            1.721,
            1.733,
            1.746,
            1.753,
            1.76,
            1.771,
            1.785,
            1.797,
            1.81,
            1.817,
            1.822,
            1.836,
            1.85,
            1.854,
            1.859,
            1.862,
            1.867,
            1.871,
            1.875,
            1.876,
            1.881,
            1.882,
            1.888,
            1.894,
            1.904,
            1.907,
            1.911,
            1.913,
            1.914,
            1.926,
            1.94,
            1.953,
            1.966,
            1.979,
            2.012,
            2.047,
            2.081,
            2.12,
            2.155,
            2.225,
            2.261,
            2.295,
            2.333,
            2.367,
            2.377,
            2.39,
            2.396,
            2.401,
            2.405,
            2.409,
            2.412,
            2.416,
            2.421,
            2.422,
            2.429,
            2.43,
            2.435,
            2.439,
            2.443,
            2.447,
            2.45,
            2.454,
            2.46,
            2.464,
            2.472,
            2.478,
            2.48,
            2.486,
            2.494,
            2.504,
            2.51,
            2.518,
            2.528,
            2.537,
            2.548,
            2.558,
            2.566,
            2.577,
            2.587,
            2.595,
            2.599,
            2.603,
            2.607,
            2.612,
            2.615,
            2.62,
            2.621,
            2.627,
            2.63,
            2.635,
            2.641,
            2.649,
            2.65,
            2.654,
            2.658,
            2.663,
            2.666,
            2.67,
            2.675,
            2.679,
            2.682,
            2.688,
            2.693,
            2.698,
            2.703,
            2.707,
            2.712,
            2.716,
            2.724,
            2.725,
            2.729,
            2.73,
            2.733,
            2.737,
            2.742,
            2.747,
            2.75,
            2.754,
            2.759,
            2.763,
            2.767,
            2.771,
            2.774,
            2.778,
            2.782,
            2.788,
            2.791,
            2.794,
            2.797,
            2.803,
            2.809,
            2.81,
            2.816,
            2.82,
            2.823,
            2.828,
            2.834,
            2.836,
            2.842,
            2.845,
            2.849,
            2.853,
            2.858,
            2.862,
            2.866,
            2.87,
            2.874,
            2.879,
            2.884,
            2.888,
            2.892,
            2.897,
            2.901,
            2.903,
            2.908,
            2.912,
            2.916,
            2.921,
            2.928,
            2.93,
            2.933,
            2.938,
            2.939,
            2.944,
            2.945,
            2.949,
            2.952,
            2.956,
            2.961,
            2.968,
            2.972,
            2.976,
            2.983,
            2.986,
            2.989,
            2.994,
            2.999,
            3.004,
            3.01,
            3.019,
            3.027,
            3.037,
            3.046,
            3.052,
            3.062,
            3.071,
            3.078,
            3.088,
            3.096,
            3.105,
            3.112,
            3.122,
            3.132,
            3.14,
            3.148,
            3.158,
            3.162,
            3.165,
            3.169,
            3.175,
            3.178,
            3.184,
            3.186,
            3.193,
            3.197,
            3.2,
            3.202,
            3.203,
            3.207,
            3.208,
            3.214,
            3.217,
            3.22,
            3.223,
            3.225,
            3.228,
            3.23,
            3.232,
            3.234,
            3.241,
            3.244,
            3.247,
            3.247,
            3.252,
            3.257,
            3.259,
            3.263,
            3.265,
            3.268,
            3.274,
            3.276,
            3.276,
            3.279,
            3.284,
            3.29,
            3.294,
            3.299,
            3.302,
            3.308,
            3.313,
            3.322,
            3.326,
            3.332,
            3.333,
            3.339,
            3.344,
            3.349,
            3.353,
            3.356,
            3.361,
            3.366,
            3.37,
            3.374,
            3.375,
            3.379,
            3.384,
            3.387,
            3.393,
            3.396,
            3.403,
            3.406,
            3.411,
            3.414,
            3.419,
            3.425,
            3.428,
            3.433,
            3.439,
            3.444,
            3.448,
            3.452,
            3.456,
            3.462,
            3.465,
            3.47,
            3.473,
            3.478,
            3.484,
            3.489,
            3.491,
            3.497,
            3.502,
            3.506,
            3.512,
            3.516,
            3.522,
            3.525,
            3.53,
            3.534,
            3.536,
            3.539,
            3.542,
            3.549,
            3.553,
            3.558,
            3.562,
            3.567,
            3.57,
            3.575,
            3.58,
            3.586,
            3.591,
            3.593,
            3.598,
            3.603,
            3.609,
            3.613,
            3.617,
            3.623,
            3.625,
            3.631,
            3.637,
            3.641,
            3.646,
            3.651,
            3.653,
            3.66,
            3.665,
            3.671,
            3.677,
            3.686,
            3.689,
            3.696,
            3.699,
            3.704,
            3.708,
            3.714,
            3.719,
            3.726,
            3.73,
            3.735,
            3.738,
            3.741,
            3.746,
            3.752,
            3.755,
            3.759,
            3.764,
            3.77,
            3.771,
            3.777,
            3.782,
            3.787,
            3.795,
            3.802,
            3.808,
            3.813,
            3.818,
            3.824,
            3.828,
            3.831,
            3.835,
            3.84,
            3.842,
            3.847,
            3.852,
            3.856,
            3.862,
            3.865,
            3.87,
            3.878,
            3.884,
            3.893,
            3.904,
            3.914,
            3.923,
            3.933,
            3.943,
            3.946,
            3.952,
            3.956,
            3.962,
            3.967,
            3.972,
            3.977,
            3.981,
            3.986,
            3.991,
            3.997,
            4.001,
            4.006,
            4.01,
            4.016,
            4.021,
            4.025,
            4.032,
            4.041,
            4.051,
            4.06,
            4.07,
            4.08,
            4.09,
            4.1,
            4.105,
            4.109,
            4.114,
            4.12,
            4.124,
            4.129,
            4.134,
            4.139,
            4.145,
            4.15,
            4.155,
            4.16,
            4.163,
            4.171,
            4.174,
            4.179,
            4.185,
            4.19,
            4.193,
            4.199,
            4.203,
            4.208,
            4.214,
            4.219,
            4.226,
            4.229,
            4.235,
            4.24,
            4.246,
            4.251,
            4.255,
            4.26,
            4.265,
            4.27,
            4.274,
            4.28,
            4.284,
            4.289,
            4.295,
            4.298,
            4.304,
            4.309,
            4.314,
            4.32,
            4.325,
            4.331,
            4.336,
            4.341,
            4.346,
            4.35,
            4.355,
            4.359,
            4.363,
            4.369,
            4.374,
            4.38,
            4.386,
            4.39,
            4.396,
            4.4,
            4.404,
            4.41,
            4.415,
            4.42,
            4.426,
            4.431,
            4.437,
            4.441,
            4.447,
            4.452,
            4.456,
            4.462,
            4.467,
            4.474,
            4.483,
            4.488,
            4.493,
            4.498,
            4.502,
            4.509,
            4.512,
            4.518,
            4.523,
            4.529,
            4.535,
            4.538,
            4.545,
            4.551,
            4.555,
            4.558,
            4.564,
            4.57,
            4.576,
            4.583,
            4.589,
            4.595,
            4.599,
            4.605,
            4.61,
            4.613,
            4.617,
            4.624,
            4.629,
            4.634,
            4.639,
            4.644,
            4.649,
            4.654,
            4.66,
            4.665,
            4.669,
            4.676,
            4.681,
            4.685,
            4.691,
            4.698,
            4.702,
            4.707,
            4.71,
            4.715,
            4.718,
            4.723,
            4.726,
            4.73,
            4.736,
            4.737,
            4.739,
            4.743,
            4.747,
            4.751,
            4.753,
            4.757,
            4.764,
            4.768,
            4.774,
            4.779,
            4.78,
            4.783,
            4.788,
            4.794,
            4.8,
            4.802,
            4.809,
            4.814,
            4.819,
            4.824,
            4.829,
            4.834,
            4.84,
            4.845,
            4.852,
            4.857,
            4.863,
            4.867,
            4.872,
            4.878,
            4.883,
            4.887,
            4.893,
            4.899,
            4.904,
            4.909,
            4.915,
            4.92,
            4.925,
            4.931,
            4.937,
            4.941,
            4.947,
            4.951,
            4.957,
            4.963,
            4.969,
            4.973,
            4.982,
            4.987,
            4.992,
            4.997,
            5.003,
            5.007,
            5.013,
            5.018,
            5.026,
            5.035,
            5.04,
            5.049,
            5.057,
            5.065,
            5.071,
            5.077,
            5.084,
            5.089,
            5.095,
            5.101,
            5.104,
            5.111,
            5.116,
            5.121,
            5.127,
            5.132,
            5.138,
            5.144,
            5.149,
            5.155,
            5.16,
            5.166,
            5.171,
            5.177,
            5.182,
            5.188,
            5.194,
            5.201,
            5.208,
            5.216,
            5.221,
            5.228,
            5.233,
            5.238,
            5.244,
            5.251,
            5.256,
            5.26,
            5.265,
            5.272,
            5.278,
            5.283,
            5.288,
            5.294,
            5.301,
            5.306,
            5.31,
            5.316,
            5.321,
            5.327,
            5.331,
            5.337,
            5.344,
            5.35,
            5.356,
            5.36,
            5.365,
            5.372,
            5.377,
            5.383,
            5.388,
            5.393,
            5.399,
            5.406,
            5.412,
            5.416,
            5.423,
            5.428,
            5.434,
            5.44,
            5.445,
            5.451,
            5.457,
            5.462,
            5.468
          ],
          [
            157.216,
            150.0,
            153.093,
            150.515,
            149.485,
            141.753,
            142.268,
            141.753,
            138.144,
            136.598,
            134.021,
            130.412,
            126.289,
            127.835,
            127.835,
            118.557,
            118.041,
            100.0,
            89.691,
            78.351,
            85.567,
            107.216,
            111.856,
            123.196,
            126.804,
            122.68,
            124.227,
            129.381,
            124.742,
            124.227,
            124.227,
            114.948,
            114.433,
            111.34,
            111.34,
            101.031,
            97.938,
            93.299,
            94.33,
            80.412,
            84.536,
            78.866,
            76.804,
            73.711,
            79.381,
            67.01,
            67.01,
            71.134,
            73.196,
            62.371,
            69.072,
            71.649,
            69.072,
            62.371,
            65.464,
            70.619,
            69.588,
            69.072,
            68.041,
            68.041,
            63.402,
            69.072,
            63.918,
            69.072,
            69.588,
            67.01,
            63.918,
            68.041,
            63.918,
            63.918,
            62.371,
            61.856,
            60.825,
            60.309,
            58.763,
            59.794,
            58.247,
            56.701,
            56.186,
            55.155,
            92.186,
            87.884,
            90.438,
            74.131,
            85.265,
            89.531,
            98.096,
            99.791,
            127.208,
            124.616,
            110.02,
            103.129,
            90.268,
            87.683,
            82.523,
            92.789,
            77.346,
            83.33,
            90.171,
            80.725,
            80.711,
            88.403,
            88.382,
            86.648,
            89.199,
            83.186,
            80.594,
            76.291,
            74.543,
            82.255,
            68.523,
            77.949,
            80.51,
            76.207,
            74.473,
            79.596,
            72.728,
            74.426,
            75.263,
            70.103,
            75.23,
            70.93,
            74.346,
            77.758,
            63.168,
            70.006,
            70.85,
            75.122,
            66.54,
            67.374,
            69.922,
            64.772,
            65.606,
            61.307,
            57.864,
            56.987,
            41.534,
            52.668,
            57.791,
            64.635,
            60.332,
            62.887,
            58.584,
            61.996,
            57.694,
            62.82,
            57.664,
            48.211,
            43.905,
            47.32,
            56.733,
            56.713,
            59.271,
            56.689,
            54.955,
            58.37,
            52.353,
            53.19,
            46.306,
            53.153,
            44.571,
            43.69,
            35.972,
            35.098,
            28.234,
            38.507,
            64.21,
            52.192,
            58.172,
            52.145,
            47.842,
            45.254,
            51.228,
            41.788,
            44.347,
            42.612,
            41.735,
            42.572,
            38.262,
            35.654,
            35.624,
            39.012,
            32.118,
            34.666,
            32.915,
            27.735,
            25.133,
            26.811,
            25.063,
            24.172,
            30.142,
            27.531,
            28.351,
            25.746,
            30.859,
            31.676,
            35.945,
            43.65,
            38.49,
            35.038,
            41.882,
            41.001,
            34.134,
            35.821,
            45.237,
            56.367,
            62.361,
            55.5,
            59.769,
            52.048,
            61.454,
            58.015,
            55.43,
            51.134,
            47.695,
            52.828,
            70.823,
            63.955,
            81.092,
            80.208,
            75.052,
            87.9,
            75.038,
            73.304,
            71.573,
            76.706,
            80.118,
            77.54,
            80.098,
            79.22,
            74.067,
            84.354,
            86.912,
            78.32,
            86.872,
            78.283,
            85.978,
            93.679,
            92.798,
            87.635,
            94.459,
            87.585,
            93.562,
            98.698,
            89.246,
            93.515,
            93.495,
            94.335,
            92.607,
            91.73,
            94.285,
            92.554,
            94.252,
            101.106,
            97.66,
            96.783,
            86.483,
            93.321,
            93.307,
            90.709,
            96.696,
            90.675,
            90.662,
            89.788,
            85.479,
            90.608,
            85.445,
            80.278,
            87.116,
            89.671,
            92.226,
            81.069,
            85.331,
            92.175,
            86.155,
            82.713,
            82.696,
            82.672,
            92.082,
            78.356,
            83.476,
            86.885,
            85.154,
            82.559,
            77.399,
            80.807,
            94.509,
            97.918,
            99.616,
            91.037,
            85.88,
            76.441,
            84.129,
            78.112,
            73.806,
            82.361,
            75.483,
            70.327,
            64.306,
            69.433,
            71.124,
            60.814,
            69.379,
            73.645,
            76.196,
            85.602,
            76.16,
            75.286,
            77.834,
            87.253,
            87.23,
            90.635,
            99.194,
            101.742,
            110.297,
            105.144,
            97.402,
            88.81,
            83.643,
            79.334,
            83.583,
            62.14,
            68.113,
            68.103,
            73.226,
            62.066,
            42.327,
            37.163,
            43.137,
            42.263,
            37.957,
            32.8,
            30.219,
            31.913,
            28.461,
            22.447,
            26.716,
            20.696,
            24.958,
            18.954,
            18.074,
            20.625,
            18.891,
            18.0,
            17.02,
            16.657,
            18.968,
            22.063,
            20.471,
            22.011,
            29.013,
            25.094,
            31.308,
            27.397,
            33.611,
            33.003,
            35.186,
            34.424,
            38.08,
            40.263,
            37.277,
            36.512,
            38.672,
            32.0,
            30.477,
            27.492,
            26.708,
            61.2,
            75.15,
            73.65,
            83.182,
            87.562,
            87.539,
            86.043,
            88.956,
            80.849,
            84.501,
            77.125,
            74.151,
            80.012,
            67.49,
            71.143,
            78.466,
            78.436,
            74.007,
            70.298,
            68.779,
            66.525,
            63.54,
            62.017,
            59.759,
            58.24,
            56.717,
            51.545,
            55.201,
            54.44,
            48.53,
            52.182,
            43.336,
            39.634,
            39.608,
            39.577,
            38.085,
            39.528,
            41.707,
            38.748,
            37.24,
            29.875,
            24.7,
            26.14,
            22.442,
            18.748,
            16.513,
            18.699,
            17.938,
            17.172,
            20.086,
            19.317,
            25.178,
            30.293,
            30.27,
            36.851,
            30.945,
            29.456,
            34.574,
            39.697,
            36.73,
            34.503,
            37.413,
            39.599,
            45.452,
            41.012,
            46.138,
            43.903,
            45.346,
            51.939,
            46.764,
            46.737,
            46.703,
            48.151,
            51.064,
            47.363,
            37.05,
            45.112,
            37.74,
            39.922,
            37.687,
            45.749,
            40.574,
            38.335,
            44.196,
            39.017,
            36.793,
            30.89,
            32.33,
            25.693,
            30.076,
            28.572,
            23.404,
            24.109,
            18.942,
            15.971,
            15.21,
            19.597,
            13.691,
            18.809,
            15.832,
            23.136,
            28.255,
            26.758,
            36.287,
            41.413,
            40.644,
            53.124,
            52.355,
            46.449,
            61.118,
            61.823,
            69.158,
            63.244,
            72.034,
            77.156,
            88.901,
            93.281,
            93.986,
            97.627,
            95.388,
            88.004,
            82.097,
            80.605,
            75.43,
            72.463,
            68.773,
            68.015,
            66.511,
            63.545,
            61.313,
            67.902,
            51.705,
            53.149,
            45.038,
            42.071,
            42.041,
            36.877,
            42.723,
            39.022,
            33.854,
            33.824,
            44.815,
            58.757,
            66.084,
            73.419,
            72.658,
            77.784,
            77.758,
            83.626,
            87.279,
            96.069,
            85.775,
            100.463,
            98.975,
            97.482,
            96.724,
            102.597,
            108.454,
            106.215,
            107.662,
            109.837,
            108.341,
            103.927,
            92.887,
            95.8,
            99.445,
            95.907,
            91.034,
            89.956,
            93.749,
            94.294,
            95.921,
            90.509,
            88.888,
            95.931,
            90.519,
            93.772,
            100.273,
            99.194,
            86.2,
            84.037,
            86.748,
            90.0,
            86.754,
            86.216,
            88.927,
            74.608,
            83.258,
            83.262,
            74.11,
            89.372,
            82.254,
            86.327,
            80.226,
            85.316,
            88.37,
            81.253,
            86.342,
            75.665,
            79.228,
            82.285,
            80.253,
            73.644,
            73.139,
            71.616,
            90.438,
            77.726,
            83.833,
            84.346,
            80.791,
            85.88,
            84.869,
            85.891,
            84.878,
            85.39,
            82.342,
            82.346,
            82.35,
            80.318,
            81.848,
            75.238,
            74.733,
            73.719,
            77.791,
            73.725,
            67.625,
            71.698,
            64.071,
            64.583,
            61.027,
            52.383,
            50.86,
            52.389,
            47.306,
            47.309,
            43.244,
            46.808,
            43.76,
            39.187,
            43.77,
            42.755,
            43.268,
            33.098,
            26.489,
            24.458,
            23.953,
            25.482,
            31.589,
            37.187,
            43.294,
            50.419,
            59.069,
            65.176,
            58.058,
            51.958,
            53.996,
            57.051,
            58.071,
            58.074,
            54.518,
            61.641,
            55.032,
            59.106,
            65.213,
            60.13,
            64.202,
            59.118,
            62.174,
            59.634,
            64.215,
            61.167,
            60.153,
            65.243,
            58.634,
            62.198,
            65.253,
            63.731,
            61.699,
            60.686,
            58.146,
            60.692,
            59.17,
            61.208,
            60.702,
            63.249
          ]
        ]
      }
    },
    "006": {
      "reaction": {
        "0": {
          "x4_code": "(7-N-15(A,EL)7-N-15,,DA)",
          "0": {
            "code": [
              "7-N-15",
              [
                "A,EL"
              ],
              "7-N-15,,DA"
            ],
            "type": null,
            "target": "7-N-15",
            "process": "A,EL",
            "sf49": "7-N-15,,DA",
            "sf4": "7-N-15",
            "sf5": null,
            "sf6": "DA",
            "sf7": null,
            "sf8": null,
            "sf9": null
          },
          "type": null,
          "free_text": ""
        }
      },
      "common": {
        "heads": [
          "ANG-CM",
          "ERR-T",
          "ERR-S",
          "ERR-1",
          "ERR-2",
          "ERR-4",
          "ERR-5"
        ],
        "units": [
          "ADEG",
          "PER-CENT",
          "PER-CENT",
          "PER-CENT",
          "PER-CENT",
          "PER-CENT",
          "PER-CENT"
        ],
        "data": [
          [
            140.8
          ],
          [
            6.2
          ],
          [
            3.0
          ],
          [
            0.28
          ],
          [
            1.0
          ],
          [
            0.7
          ],
          [
            0.5
          ]
        ]
      },
      "data": {
        "heads": [
          "EN",
          "DATA-CM"
        ],
        "units": [
          "MEV",
          "MB/SR"
        ],
        "data": [
          [
            1.707,
            1.714,
            1.721,
            1.727,
            1.734,
            1.741,
            1.746,
            1.753,
            1.76,
            1.765,
            1.775,
            1.781,
            1.785,
            1.791,
            1.798,
            1.802,
            1.812,
            1.816,
            1.824,
            1.829,
            1.835,
            1.842,
            1.848,
            1.855,
            1.862,
            1.87,
            1.876,
            1.88,
            1.883,
            1.888,
            1.892,
            1.896,
            1.9,
            1.902,
            1.909,
            1.915,
            1.927,
            1.934,
            1.942,
            1.955,
            1.967,
            1.982,
            1.994,
            2.007,
            2.022,
            2.037,
            2.05,
            2.07,
            2.09,
            2.116,
            2.137,
            2.157,
            2.179,
            2.201,
            2.221,
            2.242,
            2.263,
            2.285,
            2.308,
            2.33,
            2.351,
            2.359,
            2.401,
            2.409,
            2.418,
            2.428,
            2.44,
            2.449,
            2.454,
            2.46,
            2.462,
            2.467,
            2.473,
            2.48,
            2.487,
            2.493,
            2.503,
            2.514,
            2.521,
            2.537,
            2.546,
            2.556,
            2.563,
            2.574,
            2.583,
            2.588,
            2.592,
            2.594,
            2.599,
            2.601,
            2.605,
            2.61,
            2.619,
            2.621,
            2.627,
            2.63,
            2.635,
            2.638,
            2.64,
            2.643,
            2.646,
            2.653,
            2.658,
            2.662,
            2.665,
            2.669,
            2.673,
            2.677,
            2.682,
            2.685,
            2.686,
            2.69,
            2.694,
            2.697,
            2.702,
            2.707,
            2.709,
            2.714,
            2.718,
            2.722,
            2.725,
            2.73,
            2.736,
            2.737,
            2.742,
            2.747,
            2.749,
            2.753,
            2.758,
            2.761,
            2.766,
            2.769,
            2.773,
            2.778,
            2.783,
            2.788,
            2.791,
            2.795,
            2.8,
            2.803,
            2.809,
            2.817,
            2.82,
            2.824,
            2.83,
            2.832,
            2.836,
            2.839,
            2.844,
            2.849,
            2.852,
            2.857,
            2.862,
            2.866,
            2.869,
            2.877,
            2.879,
            2.885,
            2.886,
            2.887,
            2.894,
            2.898,
            2.903,
            2.909,
            2.913,
            2.916,
            2.92,
            2.921,
            2.929,
            2.935,
            2.937,
            2.939,
            2.942,
            2.942,
            2.943,
            2.947,
            2.952,
            2.957,
            2.958,
            2.963,
            2.966,
            2.971,
            2.975,
            2.98,
            2.985,
            2.991,
            2.993,
            2.999,
            3.002,
            3.008,
            3.012,
            3.016,
            3.022,
            3.027,
            3.031,
            3.036,
            3.042,
            3.045,
            3.049,
            3.053,
            3.057,
            3.062,
            3.067,
            3.07,
            3.073,
            3.079,
            3.084,
            3.088,
            3.096,
            3.099,
            3.103,
            3.108,
            3.113,
            3.118,
            3.122,
            3.125,
            3.13,
            3.135,
            3.139,
            3.143,
            3.147,
            3.151,
            3.156,
            3.161,
            3.165,
            3.168,
            3.173,
            3.177,
            3.181,
            3.185,
            3.19,
            3.193,
            3.193,
            3.196,
            3.2,
            3.206,
            3.209,
            3.212,
            3.217,
            3.219,
            3.223,
            3.226,
            3.229,
            3.238,
            3.24,
            3.244,
            3.248,
            3.253,
            3.257,
            3.261,
            3.267,
            3.268,
            3.272,
            3.274,
            3.278,
            3.282,
            3.287,
            3.291,
            3.295,
            3.299,
            3.305,
            3.311,
            3.313,
            3.32,
            3.323,
            3.328,
            3.331,
            3.336,
            3.341,
            3.345,
            3.35,
            3.353,
            3.359,
            3.363,
            3.368,
            3.368,
            3.372,
            3.376,
            3.381,
            3.387,
            3.39,
            3.394,
            3.399,
            3.405,
            3.408,
            3.414,
            3.417,
            3.423,
            3.426,
            3.432,
            3.434,
            3.442,
            3.445,
            3.449,
            3.454,
            3.458,
            3.462,
            3.466,
            3.473,
            3.476,
            3.481,
            3.486,
            3.489,
            3.496,
            3.499,
            3.504,
            3.509,
            3.514,
            3.517,
            3.522,
            3.527,
            3.531,
            3.532,
            3.536,
            3.539,
            3.542,
            3.547,
            3.551,
            3.558,
            3.562,
            3.568,
            3.575,
            3.579,
            3.581,
            3.585,
            3.587,
            3.59,
            3.595,
            3.597,
            3.599,
            3.605,
            3.609,
            3.614,
            3.618,
            3.626,
            3.632,
            3.638,
            3.643,
            3.647,
            3.651,
            3.654,
            3.661,
            3.665,
            3.67,
            3.675,
            3.679,
            3.683,
            3.688,
            3.692,
            3.696,
            3.702,
            3.707,
            3.712,
            3.718,
            3.721,
            3.725,
            3.73,
            3.733,
            3.736,
            3.742,
            3.743,
            3.749,
            3.754,
            3.759,
            3.764,
            3.771,
            3.778,
            3.781,
            3.787,
            3.791,
            3.797,
            3.804,
            3.807,
            3.813,
            3.818,
            3.822,
            3.827,
            3.832,
            3.836,
            3.84,
            3.846,
            3.851,
            3.855,
            3.86,
            3.865,
            3.871,
            3.877,
            3.884,
            3.889,
            3.893,
            3.898,
            3.904,
            3.908,
            3.913,
            3.918,
            3.923,
            3.926,
            3.933,
            3.937,
            3.942,
            3.948,
            3.952,
            3.958,
            3.961,
            3.967,
            3.97,
            3.976,
            3.98,
            3.986,
            3.99,
            3.996,
            3.999,
            4.004,
            4.009,
            4.015,
            4.02,
            4.024,
            4.029,
            4.034,
            4.04,
            4.043,
            4.049,
            4.053,
            4.059,
            4.064,
            4.068,
            4.074,
            4.079,
            4.085,
            4.089,
            4.093,
            4.099,
            4.104,
            4.107,
            4.114,
            4.118,
            4.123,
            4.128,
            4.134,
            4.137,
            4.142,
            4.148,
            4.154,
            4.158,
            4.162,
            4.167,
            4.172,
            4.177,
            4.181,
            4.188,
            4.193,
            4.197,
            4.203,
            4.208,
            4.212,
            4.218,
            4.223,
            4.226,
            4.233,
            4.237,
            4.243,
            4.248,
            4.252,
            4.257,
            4.262,
            4.267,
            4.273,
            4.277,
            4.282,
            4.286,
            4.292,
            4.297,
            4.302,
            4.306,
            4.311,
            4.316,
            4.322,
            4.327,
            4.333,
            4.337,
            4.343,
            4.348,
            4.353,
            4.357,
            4.363,
            4.368,
            4.371,
            4.376,
            4.381,
            4.389,
            4.392,
            4.397,
            4.403,
            4.408,
            4.412,
            4.417,
            4.422,
            4.427,
            4.433,
            4.438,
            4.443,
            4.448,
            4.453,
            4.458,
            4.463,
            4.47,
            4.475,
            4.48,
            4.486,
            4.49,
            4.495,
            4.501,
            4.506,
            4.511,
            4.516,
            4.52,
            4.526,
            4.532,
            4.538,
            4.542,
            4.548,
            4.553,
            4.558,
            4.563,
            4.568,
            4.574,
            4.58,
            4.584,
            4.588,
            4.593,
            4.599,
            4.604,
            4.61,
            4.614,
            4.62,
            4.625,
            4.63,
            4.638,
            4.641,
            4.647,
            4.652,
            4.658,
            4.662,
            4.667,
            4.673,
            4.677,
            4.682,
            4.688,
            4.694,
            4.7,
            4.705,
            4.71,
            4.715,
            4.721,
            4.726,
            4.729,
            4.736,
            4.74,
            4.747,
            4.753,
            4.756,
            4.762,
            4.767,
            4.773,
            4.778,
            4.784,
            4.789,
            4.793,
            4.8,
            4.802,
            4.807,
            4.811,
            4.818,
            4.82,
            4.824,
            4.828,
            4.834,
            4.838,
            4.844,
            4.849,
            4.855,
            4.86,
            4.866,
            4.871,
            4.877,
            4.882,
            4.886,
            4.892,
            4.898,
            4.904,
            4.908,
            4.912,
            4.918,
            4.925,
            4.931,
            4.936,
            4.94,
            4.947,
            4.951,
            4.957,
            4.962,
            4.968,
            4.974,
            4.978,
            4.985,
            4.99,
            4.995,
            5.001,
            5.006,
            5.01,
            5.018,
            5.022,
            5.028,
            5.032,
            5.039,
            5.044,
            5.049,
            5.055,
            5.06,
            5.065,
            5.07,
            5.076,
            5.081,
            5.087,
            5.093,
            5.098,
            5.103,
            5.11,
            5.112,
            5.113,
            5.119,
            5.121,
            5.124,
            5.127,
            5.132,
            5.137,
            5.142,
            5.148,
            5.154,
            5.159,
            5.165,
            5.17,
            5.174,
            5.181,
            5.187,
            5.193,
            5.198,
            5.204,
            5.208,
            5.215,
            5.223,
            5.229,
            5.231,
            5.236,
            5.237,
            5.242,
            5.249,
            5.254,
            5.261,
            5.265,
            5.272,
            5.277,
            5.282,
            5.285,
            5.287,
            5.291,
            5.296,
            5.299,
            5.306,
            5.311,
            5.316,
            5.32,
            5.325,
            5.331,
            5.336,
            5.343,
            5.349,
            5.354,
            5.36,
            5.366,
            5.371,
            5.377,
            5.383,
            5.389,
            5.393,
            5.4,
            5.405,
            5.411,
            5.417,
            5.423,
            5.429,
            5.434,
            5.44,
            5.445,
            5.451,
            5.456,
            5.462,
            5.468,
            5.472,
            5.478,
            5.482,
            5.484,
            5.49,
            5.493,
            5.496,
            5.501,
            5.506,
            5.512,
            5.518,
            5.524
          ],
          [
            199.172,
            197.647,
            199.601,
            194.981,
            195.003,
            188.452,
            186.536,
            188.49,
            185.419,
            183.5,
            179.665,
            183.552,
            180.856,
            177.782,
            174.711,
            172.406,
            166.635,
            164.33,
            165.9,
            158.185,
            156.271,
            153.2,
            156.698,
            150.148,
            135.09,
            110.759,
            87.584,
            82.57,
            125.49,
            180.789,
            198.197,
            192.799,
            183.531,
            177.353,
            171.962,
            168.888,
            165.445,
            158.121,
            160.467,
            155.868,
            153.587,
            156.724,
            149.031,
            144.816,
            138.292,
            139.497,
            140.31,
            131.867,
            131.544,
            124.278,
            126.277,
            121.313,
            120.609,
            119.902,
            114.552,
            106.111,
            108.497,
            101.221,
            109.021,
            97.879,
            101.038,
            96.809,
            90.752,
            89.618,
            84.232,
            87.356,
            86.621,
            87.036,
            86.663,
            89.775,
            82.437,
            82.84,
            84.017,
            83.267,
            84.062,
            84.854,
            83.336,
            78.733,
            80.687,
            77.255,
            77.67,
            76.544,
            76.562,
            75.438,
            75.08,
            80.507,
            72.787,
            75.288,
            75.275,
            81.26,
            81.248,
            86.052,
            85.068,
            88.914,
            91.789,
            95.635,
            98.51,
            80.204,
            60.937,
            68.635,
            58.996,
            59.941,
            63.782,
            58.955,
            70.505,
            66.644,
            61.819,
            60.846,
            61.796,
            63.715,
            68.528,
            63.703,
            66.581,
            59.832,
            62.71,
            59.809,
            62.692,
            64.606,
            63.634,
            66.514,
            64.578,
            62.641,
            62.627,
            56.843,
            58.758,
            52.004,
            62.594,
            57.767,
            57.755,
            52.933,
            61.587,
            55.801,
            55.792,
            56.744,
            50.951,
            56.718,
            46.117,
            51.884,
            48.983,
            45.124,
            47.999,
            45.089,
            37.377,
            29.66,
            23.868,
            35.421,
            46.969,
            53.702,
            51.764,
            53.678,
            51.745,
            60.399,
            54.609,
            45.932,
            53.627,
            56.498,
            87.314,
            71.888,
            66.106,
            57.436,
            48.752,
            46.814,
            45.839,
            50.641,
            49.666,
            43.88,
            41.945,
            49.648,
            42.885,
            49.613,
            46.719,
            63.087,
            73.675,
            90.048,
            96.785,
            88.108,
            48.608,
            54.375,
            44.739,
            39.912,
            47.61,
            34.113,
            42.771,
            34.092,
            33.115,
            33.101,
            40.801,
            36.935,
            32.11,
            32.096,
            33.05,
            34.965,
            33.024,
            30.123,
            25.296,
            32.026,
            26.234,
            26.225,
            21.4,
            33.911,
            28.123,
            27.146,
            26.171,
            31.943,
            27.118,
            28.067,
            29.019,
            29.971,
            25.136,
            32.835,
            30.897,
            35.701,
            31.837,
            32.788,
            41.445,
            34.696,
            40.463,
            36.597,
            45.256,
            37.541,
            42.345,
            40.41,
            43.288,
            44.239,
            46.154,
            52.889,
            46.135,
            52.866,
            46.115,
            49.958,
            46.094,
            72.091,
            83.647,
            94.234,
            90.372,
            82.653,
            86.497,
            79.748,
            78.773,
            88.4,
            102.837,
            111.496,
            98.006,
            97.985,
            93.162,
            93.153,
            94.107,
            101.798,
            89.268,
            95.037,
            89.242,
            100.798,
            95.01,
            102.71,
            100.775,
            99.8,
            109.42,
            105.558,
            105.548,
            103.611,
            93.002,
            102.62,
            96.834,
            100.67,
            109.332,
            110.281,
            103.532,
            105.447,
            109.285,
            103.497,
            100.596,
            111.184,
            105.389,
            96.711,
            103.442,
            109.22,
            99.578,
            102.458,
            107.262,
            104.356,
            96.644,
            102.414,
            104.328,
            102.386,
            106.231,
            99.476,
            108.135,
            109.084,
            105.224,
            103.282,
            96.535,
            98.443,
            102.286,
            95.535,
            101.302,
            94.551,
            93.577,
            97.42,
            96.44,
            89.689,
            93.53,
            98.334,
            103.141,
            104.088,
            90.597,
            97.325,
            94.424,
            103.08,
            100.184,
            92.465,
            96.306,
            91.481,
            85.7,
            88.578,
            82.792,
            87.601,
            89.513,
            85.652,
            90.451,
            97.181,
            97.167,
            94.262,
            102.918,
            94.246,
            107.72,
            115.421,
            93.262,
            87.469,
            95.169,
            92.275,
            96.114,
            85.508,
            89.349,
            95.118,
            102.803,
            92.194,
            98.92,
            96.982,
            81.563,
            71.92,
            51.687,
            52.634,
            43.954,
            41.054,
            46.821,
            40.067,
            41.984,
            42.936,
            44.85,
            50.62,
            49.643,
            47.703,
            40.949,
            36.12,
            31.295,
            31.286,
            29.348,
            37.046,
            26.442,
            25.465,
            33.168,
            31.228,
            25.435,
            34.092,
            28.301,
            26.357,
            28.267,
            24.405,
            29.207,
            34.976,
            33.997,
            35.277,
            45.558,
            43.323,
            44.039,
            49.902,
            53.559,
            56.478,
            62.341,
            66.733,
            67.442,
            74.041,
            70.345,
            76.943,
            82.803,
            84.247,
            84.954,
            95.219,
            87.108,
            102.529,
            101.036,
            104.687,
            112.024,
            123.765,
            130.364,
            132.544,
            148.707,
            147.942,
            161.893,
            151.577,
            136.114,
            131.683,
            121.363,
            105.909,
            108.821,
            99.25,
            98.489,
            99.94,
            95.502,
            94.012,
            92.519,
            87.356,
            92.481,
            92.458,
            88.024,
            82.119,
            86.511,
            86.489,
            89.407,
            90.852,
            80.545,
            88.607,
            81.235,
            83.415,
            81.187,
            84.112,
            84.086,
            79.652,
            78.891,
            81.813,
            78.117,
            81.771,
            83.954,
            77.324,
            75.821,
            80.952,
            83.867,
            77.965,
            74.263,
            84.541,
            87.459,
            88.172,
            84.467,
            80.039,
            91.784,
            95.441,
            93.213,
            96.131,
            100.523,
            99.759,
            104.884,
            110.014,
            115.136,
            119.525,
            124.652,
            129.038,
            128.28,
            131.944,
            129.709,
            131.895,
            123.782,
            116.406,
            106.828,
            100.923,
            88.401,
            81.026,
            77.324,
            70.69,
            82.432,
            80.207,
            79.449,
            84.573,
            97.05,
            98.505,
            99.949,
            96.254,
            96.96,
            103.558,
            97.65,
            96.16,
            99.076,
            102.729,
            101.236,
            99.011,
            100.459,
            104.848,
            96.009,
            108.486,
            103.319,
            102.549,
            113.565,
            110.601,
            110.576,
            111.288,
            113.475,
            115.661,
            120.05,
            125.175,
            117.061,
            123.656,
            128.78,
            132.434,
            126.532,
            128.716,
            130.899,
            136.014,
            142.612,
            147.733,
            138.887,
            127.838,
            127.816,
            127.79,
            121.15,
            118.186,
            104.929,
            98.295,
            94.593,
            90.887,
            89.391,
            80.552,
            79.052,
            83.444,
            78.272,
            81.193,
            84.112,
            84.821,
            83.325,
            88.453,
            81.084,
            82.529,
            77.356,
            78.804,
            76.575,
            80.232,
            70.648,
            68.42,
            68.397,
            68.362,
            60.996,
            59.496,
            60.947,
            60.186,
            51.344,
            53.527,
            46.884,
            42.456,
            40.224,
            35.787,
            35.026,
            36.47,
            41.595,
            48.19,
            49.638,
            50.347,
            55.472,
            62.811,
            61.312,
            65.704,
            71.557,
            74.473,
            82.548,
            80.313,
            79.555,
            81.738,
            80.245,
            78.014,
            80.197,
            86.06,
            84.56,
            85.569,
            89.595,
            85.065,
            89.595,
            83.555,
            86.072,
            83.555,
            82.045,
            83.052,
            83.555,
            81.038,
            79.025,
            82.045,
            88.085,
            77.515,
            77.012,
            77.515,
            79.528,
            79.528,
            79.528,
            74.998,
            69.965,
            71.978,
            73.992,
            78.018,
            81.542,
            66.945,
            72.985,
            68.455,
            70.972,
            64.931,
            69.462,
            68.455,
            67.448,
            74.495,
            70.468,
            66.441,
            71.978,
            69.965,
            64.931,
            68.455,
            66.945,
            65.435,
            70.468,
            62.415,
            61.408,
            62.415,
            59.395,
            60.905,
            58.891,
            57.885,
            55.871,
            50.334,
            59.395,
            52.851,
            56.375,
            48.321,
            49.328,
            49.831,
            62.415,
            68.958,
            70.972,
            65.938,
            64.931,
            60.401,
            46.811,
            52.348,
            51.341,
            48.824,
            50.334,
            54.865,
            57.381,
            63.421,
            57.885,
            60.401,
            63.925,
            66.945,
            64.428,
            65.938,
            62.415,
            67.448,
            62.415,
            62.415,
            72.985,
            73.992,
            68.958,
            64.428,
            66.441,
            53.355,
            52.851,
            46.811,
            39.764,
            36.744,
            37.247,
            41.274,
            51.341,
            46.308,
            37.751,
            19.127,
            21.644,
            21.644,
            24.664,
            25.671,
            28.691,
            29.194,
            27.684,
            29.697,
            30.201,
            34.227,
            34.227,
            33.221,
            32.214,
            33.221,
            34.731,
            33.221,
            38.758,
            34.731,
            32.717,
            34.227,
            37.247,
            33.221,
            33.221,
            34.731,
            37.247,
            36.744,
            37.751,
            36.241,
            37.247,
            36.744,
            38.254,
            39.764,
            44.798,
            49.328,
            49.328,
            45.301,
            40.268,
            37.247,
            35.737,
            38.254,
            40.268,
            38.758
          ]
        ]
      }
    },
    "007": {
      "reaction": {
        "0": {
          "x4_code": "(7-N-15(A,EL)7-N-15,,DA)",
          "0": {
            "code": [
              "7-N-15",
              [
                "A,EL"
              ],
              "7-N-15,,DA"
            ],
            "type": null,
            "target": "7-N-15",
            "process": "A,EL",
            "sf49": "7-N-15,,DA",
            "sf4": "7-N-15",
            "sf5": null,
            "sf6": "DA",
            "sf7": null,
            "sf8": null,
            "sf9": null
          },
          "type": null,
          "free_text": ""
        }
      },
      "common": {
        "heads": [
          "ANG-CM",
          "ERR-T",
          "ERR-S",
          "ERR-1",
          "ERR-2",
          "ERR-4",
          "ERR-5"
        ],
        "units": [
          "ADEG",
          "PER-CENT",
          "PER-CENT",
          "PER-CENT",
          "PER-CENT",
          "PER-CENT",
          "PER-CENT"
        ],
        "data": [
          [
            149.5
          ],
          [
            6.2
          ],
          [
            3.0
          ],
          [
            0.28
          ],
          [
            1.0
          ],
          [
            0.7
          ],
          [
            0.5
          ]
        ]
      },
      "data": {
        "heads": [
          "EN",
          "DATA-CM"
        ],
        "units": [
          "MEV",
          "MB/SR"
        ],
        "data": [
          [
            2.404,
            2.409,
            2.416,
            2.424,
            2.431,
            2.439,
            2.447,
            2.454,
            2.47,
            2.481,
            2.489,
            2.498,
            2.503,
            2.507,
            2.511,
            2.515,
            2.519,
            2.524,
            2.528,
            2.532,
            2.54,
            2.544,
            2.547,
            2.553,
            2.558,
            2.563,
            2.569,
            2.571,
            2.575,
            2.58,
            2.585,
            2.59,
            2.595,
            2.599,
            2.604,
            2.606,
            2.612,
            2.612,
            2.618,
            2.619,
            2.62,
            2.626,
            2.627,
            2.63,
            2.634,
            2.636,
            2.639,
            2.641,
            2.643,
            2.647,
            2.652,
            2.655,
            2.658,
            2.662,
            2.664,
            2.671,
            2.681,
            2.691,
            2.702,
            2.712,
            2.721,
            2.731,
            2.74,
            2.751,
            2.761,
            2.771,
            2.781,
            2.792,
            2.8,
            2.808,
            2.817,
            2.822,
            2.826,
            2.828,
            2.832,
            2.835,
            2.837,
            2.841,
            2.843,
            2.849,
            2.856,
            2.857,
            2.862,
            2.866,
            2.871,
            2.875,
            2.881,
            2.881,
            2.882,
            2.888,
            2.891,
            2.892,
            2.892,
            2.899,
            2.904,
            2.906,
            2.913,
            2.918,
            2.923,
            2.927,
            2.93,
            2.936,
            2.94,
            2.94,
            2.943,
            2.947,
            2.949,
            2.951,
            2.952,
            2.953,
            2.956,
            2.956,
            2.959,
            2.959,
            2.964,
            2.969,
            2.974,
            2.982,
            2.992,
            3.0,
            3.005,
            3.01,
            3.016,
            3.019,
            3.049,
            3.062,
            3.072,
            3.081,
            3.093,
            3.101,
            3.11,
            3.113,
            3.12,
            3.125,
            3.133,
            3.138,
            3.145,
            3.147,
            3.151,
            3.156,
            3.162,
            3.168,
            3.172,
            3.178,
            3.184,
            3.189,
            3.193,
            3.198,
            3.199,
            3.208,
            3.214,
            3.219,
            3.222,
            3.223,
            3.224,
            3.226,
            3.23,
            3.232,
            3.234,
            3.235,
            3.239,
            3.242,
            3.245,
            3.25,
            3.255,
            3.259,
            3.263,
            3.267,
            3.272,
            3.276,
            3.286,
            3.293,
            3.304,
            3.314,
            3.321,
            3.331,
            3.338,
            3.348,
            3.357,
            3.366,
            3.376,
            3.384,
            3.392,
            3.397,
            3.401,
            3.407,
            3.411,
            3.419,
            3.428,
            3.437,
            3.447,
            3.456,
            3.463,
            3.475,
            3.482,
            3.492,
            3.502,
            3.51,
            3.514,
            3.519,
            3.525,
            3.529,
            3.533,
            3.537,
            3.542,
            3.545,
            3.547,
            3.551,
            3.556,
            3.561,
            3.566,
            3.57,
            3.574,
            3.579,
            3.582,
            3.584,
            3.586,
            3.589,
            3.591,
            3.591,
            3.596,
            3.597,
            3.601,
            3.606,
            3.611,
            3.616,
            3.621,
            3.628,
            3.63,
            3.635,
            3.641,
            3.645,
            3.648,
            3.654,
            3.654,
            3.655,
            3.659,
            3.66,
            3.66,
            3.665,
            3.668,
            3.67,
            3.674,
            3.678,
            3.683,
            3.688,
            3.692,
            3.698,
            3.699,
            3.703,
            3.707,
            3.708,
            3.711,
            3.713,
            3.716,
            3.72,
            3.725,
            3.73,
            3.737,
            3.742,
            3.749,
            3.752,
            3.758,
            3.761,
            3.767,
            3.768,
            3.782,
            3.791,
            3.81,
            3.821,
            3.829,
            3.839,
            3.848,
            3.857,
            3.863,
            3.867,
            3.87,
            3.877,
            3.88,
            3.887,
            3.892,
            3.895,
            3.9,
            3.904,
            3.909,
            3.915,
            3.92,
            3.924,
            3.929,
            3.935,
            3.939,
            3.944,
            3.948,
            3.953,
            3.958,
            3.963,
            3.974,
            3.983,
            3.993,
            4.003,
            4.013,
            4.022,
            4.032,
            4.042,
            4.052,
            4.062,
            4.081,
            4.091,
            4.1,
            4.106,
            4.11,
            4.117,
            4.12,
            4.124,
            4.128,
            4.131,
            4.134,
            4.137,
            4.14,
            4.145,
            4.151,
            4.155,
            4.161,
            4.165,
            4.17,
            4.176,
            4.182,
            4.184,
            4.189,
            4.194,
            4.199,
            4.205,
            4.21,
            4.215,
            4.219,
            4.225,
            4.23,
            4.235,
            4.24,
            4.249,
            4.255,
            4.26,
            4.265,
            4.27,
            4.276,
            4.281,
            4.285,
            4.291,
            4.295,
            4.301,
            4.306,
            4.311,
            4.315,
            4.321,
            4.326,
            4.33,
            4.337,
            4.342,
            4.345,
            4.351,
            4.354,
            4.357,
            4.362,
            4.367,
            4.372,
            4.376,
            4.387,
            4.391,
            4.397,
            4.4,
            4.406,
            4.412,
            4.416,
            4.422,
            4.428,
            4.431,
            4.436,
            4.443,
            4.447,
            4.453,
            4.458,
            4.461,
            4.467,
            4.472,
            4.478,
            4.483,
            4.488,
            4.492,
            4.498,
            4.503,
            4.51,
            4.515,
            4.519,
            4.524,
            4.53,
            4.536,
            4.54,
            4.546,
            4.551,
            4.557,
            4.562,
            4.568,
            4.572,
            4.576,
            4.584,
            4.589,
            4.593,
            4.598,
            4.604,
            4.609,
            4.615,
            4.62,
            4.625,
            4.63,
            4.637,
            4.64,
            4.645,
            4.651,
            4.657,
            4.661,
            4.668,
            4.672,
            4.678,
            4.682,
            4.687,
            4.694,
            4.699,
            4.704,
            4.708,
            4.715,
            4.719,
            4.724,
            4.73,
            4.735,
            4.741,
            4.746,
            4.752,
            4.758,
            4.761,
            4.767,
            4.772,
            4.776,
            4.779,
            4.779,
            4.784,
            4.788,
            4.791,
            4.798,
            4.805,
            4.81,
            4.815,
            4.82,
            4.825,
            4.833,
            4.842,
            4.853,
            4.857,
            4.864,
            4.869,
            4.874,
            4.879,
            4.884,
            4.894,
            4.906,
            4.917,
            4.927,
            4.939,
            4.949,
            4.96,
            4.971,
            4.976,
            4.982,
            4.987,
            4.994,
            4.999,
            5.005,
            5.01,
            5.015,
            5.02,
            5.026,
            5.031,
            5.037,
            5.047,
            5.058,
            5.068,
            5.08,
            5.09,
            5.097,
            5.102,
            5.106,
            5.108,
            5.111,
            5.113,
            5.117,
            5.119,
            5.121,
            5.124,
            5.128,
            5.129,
            5.134,
            5.136,
            5.14,
            5.147,
            5.152,
            5.157,
            5.164,
            5.169,
            5.173,
            5.178,
            5.185,
            5.192,
            5.197,
            5.202,
            5.208,
            5.211,
            5.213,
            5.22,
            5.224,
            5.228,
            5.232,
            5.235,
            5.237,
            5.249,
            5.252,
            5.258,
            5.262,
            5.266,
            5.268,
            5.271,
            5.274,
            5.278,
            5.281
          ],
          [
            86.386,
            82.582,
            81.623,
            81.612,
            81.602,
            79.693,
            81.581,
            83.471,
            82.498,
            82.484,
            83.422,
            79.613,
            74.859,
            81.499,
            79.596,
            70.096,
            78.635,
            78.628,
            76.725,
            79.566,
            85.252,
            71.955,
            77.647,
            75.741,
            75.733,
            83.322,
            72.871,
            78.565,
            77.609,
            77.603,
            76.647,
            81.386,
            75.684,
            79.476,
            77.57,
            88.01,
            85.154,
            92.749,
            100.335,
            93.689,
            84.194,
            87.034,
            80.387,
            89.877,
            90.82,
            84.172,
            70.877,
            63.28,
            58.53,
            52.828,
            49.973,
            52.818,
            57.561,
            57.555,
            53.754,
            63.239,
            58.478,
            61.314,
            58.45,
            57.487,
            62.222,
            59.36,
            55.55,
            61.232,
            56.471,
            54.559,
            51.698,
            50.733,
            51.671,
            47.864,
            45.003,
            38.351,
            35.496,
            26.95,
            18.4,
            28.839,
            41.179,
            58.262,
            63.954,
            65.846,
            69.633,
            62.037,
            61.081,
            59.177,
            62.967,
            71.506,
            97.131,
            114.22,
            127.51,
            108.514,
            82.877,
            59.142,
            67.686,
            52.487,
            51.53,
            47.73,
            46.772,
            49.612,
            49.606,
            51.5,
            53.393,
            60.031,
            81.862,
            103.697,
            122.68,
            141.663,
            158.748,
            129.315,
            122.668,
            107.477,
            53.359,
            68.549,
            37.216,
            44.811,
            39.107,
            33.404,
            35.297,
            38.134,
            32.423,
            36.211,
            36.203,
            35.247,
            33.341,
            31.438,
            31.396,
            32.329,
            34.214,
            33.252,
            35.134,
            33.225,
            40.807,
            37.956,
            38.896,
            47.433,
            44.574,
            45.517,
            46.457,
            51.201,
            47.398,
            51.188,
            57.826,
            59.716,
            62.559,
            57.805,
            57.796,
            55.891,
            56.835,
            75.816,
            105.244,
            105.232,
            99.528,
            100.47,
            106.163,
            114.706,
            125.147,
            135.588,
            127.987,
            114.693,
            106.146,
            97.6,
            98.545,
            98.541,
            97.586,
            99.479,
            103.27,
            105.164,
            103.259,
            104.203,
            104.196,
            105.139,
            107.975,
            112.712,
            114.595,
            114.582,
            113.623,
            114.559,
            113.6,
            114.535,
            117.372,
            114.511,
            107.853,
            117.335,
            116.376,
            112.57,
            107.819,
            110.659,
            112.551,
            112.541,
            112.528,
            109.669,
            105.858,
            103.946,
            108.684,
            103.921,
            104.86,
            102.948,
            105.783,
            106.722,
            111.462,
            111.456,
            84.866,
            84.86,
            85.804,
            90.546,
            101.93,
            97.18,
            92.43,
            99.071,
            99.063,
            95.259,
            102.848,
            107.59,
            105.685,
            111.375,
            126.561,
            111.368,
            137.948,
            147.436,
            120.852,
            139.839,
            114.2,
            105.654,
            99.004,
            92.35,
            94.243,
            102.781,
            99.925,
            101.815,
            104.66,
            103.703,
            97.05,
            83.753,
            70.458,
            53.361,
            62.855,
            45.765,
            43.861,
            34.365,
            39.112,
            36.258,
            27.71,
            34.353,
            31.498,
            35.29,
            35.284,
            35.278,
            40.018,
            40.011,
            49.503,
            69.435,
            64.681,
            58.984,
            54.233,
            48.535,
            44.733,
            40.93,
            44.721,
            38.069,
            36.16,
            39.951,
            38.991,
            38.038,
            38.031,
            37.077,
            35.17,
            40.865,
            41.795,
            45.581,
            59.345,
            64.538,
            70.472,
            93.468,
            100.144,
            109.046,
            110.53,
            114.239,
            119.431,
            124.624,
            135.009,
            135.009,
            140.202,
            149.846,
            156.522,
            168.391,
            191.387,
            195.096,
            217.35,
            226.252,
            248.506,
            248.506,
            229.219,
            203.998,
            178.034,
            148.362,
            139.46,
            109.788,
            106.079,
            94.21,
            94.21,
            92.726,
            96.435,
            96.435,
            91.984,
            99.403,
            101.628,
            95.694,
            97.919,
            110.53,
            104.595,
            108.304,
            109.788,
            112.013,
            106.821,
            89.759,
            92.726,
            101.628,
            112.755,
            122.399,
            133.526,
            141.686,
            141.686,
            146.878,
            146.137,
            155.038,
            160.231,
            173.584,
            176.551,
            183.227,
            199.547,
            206.965,
            229.961,
            225.51,
            231.445,
            231.445,
            233.67,
            224.027,
            217.35,
            211.416,
            202.514,
            172.1,
            150.588,
            140.202,
            121.657,
            103.112,
            104.595,
            102.37,
            111.272,
            114.239,
            124.624,
            126.108,
            129.075,
            127.591,
            135.009,
            134.268,
            137.235,
            142.428,
            139.46,
            139.46,
            152.813,
            148.362,
            152.813,
            146.137,
            146.137,
            140.202,
            149.104,
            149.846,
            155.78,
            168.391,
            169.133,
            175.067,
            175.067,
            177.293,
            184.711,
            191.387,
            193.613,
            208.449,
            220.318,
            226.252,
            239.605,
            238.121,
            248.506,
            270.761,
            270.761,
            281.888,
            275.212,
            278.179,
            281.146,
            270.019,
            267.052,
            252.957,
            239.605,
            226.994,
            221.801,
            213.641,
            200.289,
            178.776,
            182.485,
            158.006,
            152.813,
            145.395,
            134.268,
            113.497,
            102.37,
            94.21,
            94.21,
            87.534,
            89.759,
            85.308,
            86.05,
            89.017,
            87.534,
            86.05,
            90.501,
            89.759,
            88.275,
            88.275,
            80.857,
            82.341,
            82.341,
            82.341,
            83.083,
            77.148,
            81.599,
            74.923,
            72.697,
            71.214,
            54.152,
            45.992,
            37.832,
            38.574,
            42.283,
            46.734,
            51.185,
            54.894,
            59.345,
            66.763,
            72.697,
            72.697,
            78.632,
            77.148,
            67.505,
            63.796,
            71.214,
            77.148,
            77.148,
            88.275,
            93.468,
            94.21,
            89.759,
            92.916,
            90.344,
            91.882,
            90.852,
            93.416,
            89.815,
            86.213,
            89.806,
            93.912,
            93.395,
            89.797,
            94.417,
            99.551,
            94.922,
            91.833,
            90.286,
            92.848,
            93.355,
            93.35,
            85.638,
            86.145,
            88.197,
            88.194,
            85.109,
            86.646,
            83.561,
            83.558,
            83.041,
            83.552,
            83.549,
            79.436,
            74.296,
            74.807,
            73.259,
            71.199,
            64.001,
            57.83,
            49.605,
            45.492,
            48.057,
            52.678,
            60.382,
            77.333,
            73.222,
            57.809,
            46.507,
            43.937,
            40.339,
            40.85,
            35.199,
            36.738,
            40.846,
            37.248,
            42.895,
            49.569,
            55.731,
            64.974,
            68.566,
            76.783,
            89.109,
            95.269,
            96.293,
            106.564,
            112.212,
            103.476,
            111.693,
            123.507,
            120.934,
            129.665,
            149.183,
            157.4,
            148.666,
            144.555,
            150.712,
            135.3,
            118.344,
            90.089,
            84.949,
            78.27,
            76.214,
            67.479,
            59.258,
            51.551
          ]
        ]
      }
    },
    "008": {
      "reaction": {
        "1": {
          "x4_code": "(7-N-15(A,0),,EN)",
          "0": {
            "code": [
              "7-N-15",
              [
                "A,0"
              ],
              ",,EN"
            ],
            "type": null,
            "target": "7-N-15",
            "process": "A,0",
            "sf49": ",,EN",
            "sf4": null,
            "sf5": null,
            "sf6": "EN",
            "sf7": null,
            "sf8": null,
            "sf9": null
          },
          "type": null,
          "free_text": ""
        },
        "2": {
          "x4_code": "(7-N-15(A,0),,J)",
          "0": {
            "code": [
              "7-N-15",
              [
                "A,0"
              ],
              ",,J"
            ],
            "type": null,
            "target": "7-N-15",
            "process": "A,0",
            "sf49": ",,J",
            "sf4": null,
            "sf5": null,
            "sf6": "J",
            "sf7": null,
            "sf8": null,
            "sf9": null
          },
          "type": null,
          "free_text": ""
        },
        "3": {
          "x4_code": "(7-N-15(A,0),,PTY)",
          "0": {
            "code": [
              "7-N-15",
              [
                "A,0"
              ],
              ",,PTY"
            ],
            "type": null,
            "target": "7-N-15",
            "process": "A,0",
            "sf49": ",,PTY",
            "sf4": null,
            "sf5": null,
            "sf6": "PTY",
            "sf7": null,
            "sf8": null,
            "sf9": null
          },
          "type": null,
          "free_text": ""
        },
        "4": {
          "x4_code": "(7-N-15(A,EL),,WID)",
          "0": {
            "code": [
              "7-N-15",
              [
                "A,EL"
              ],
              ",,WID"
            ],
            "type": null,
            "target": "7-N-15",
            "process": "A,EL",
            "sf49": ",,WID",
            "sf4": null,
            "sf5": null,
            "sf6": "WID",
            "sf7": null,
            "sf8": null,
            "sf9": null
          },
          "type": null,
          "free_text": ""
        }
      },
      "common": null,
      "data": {
        "heads": [
          "DATA      1",
          "DATA      2",
          "DATA      3",
          "DATA      4",
          "DATA-APRX 4"
        ],
        "units": [
          "MEV",
          "NO-DIM",
          "NO-DIM",
          "KEV",
          "KEV"
        ],
        "data": [
          [
            1.878,
            2.614,
            2.635,
            2.833,
            2.883,
            2.944,
            3.07,
            3.194,
            3.229,
            3.525,
            3.587,
            3.648,
            3.705,
            3.78,
            3.92,
            3.94
          ],
          [
            1.5,
            2.5,
            2.5,
            0.5,
            2.5,
            3.5,
            0.5,
            0.5,
            2.5,
            1.5,
            2.5,
            2.5,
            4.5,
            0.5,
            3.5,
            1.5
          ],
          [
            1.0,
            1.0,
            -1.0,
            1.0,
            1.0,
            1.0,
            -1.0,
            1.0,
            1.0,
            -1.0,
            1.0,
            -1.0,
            -1.0,
            -1.0,
            1.0,
            1.0
          ],
          [
            4.0,
            1.5,
            5.0,
            10.0,
            3.0,
            3.0,
            358.0,
            5.0,
            2.0,
            3.0,
            1.5,
            35.0,
            3.0,
            64.0,
            null,
            null
          ],
          [
            null,
            null,
            null,
            null,
            null,
            null,
            null,
            null,
            null,
            null,
            null,
            null,
            null,
            null,
            40.0,
            10.0
          ]
        ]
      }
    },
    "009": {
      "reaction": {
        "1": {
          "x4_code": "(7-N-15(A,0),,EN)",
          "0": {
            "code": [
              "7-N-15",
              [
                "A,0"
              ],
              ",,EN"
            ],
            "type": null,
            "target": "7-N-15",
            "process": "A,0",
            "sf49": ",,EN",
            "sf4": null,
            "sf5": null,
            "sf6": "EN",
            "sf7": null,
            "sf8": null,
            "sf9": null
          },
          "type": null,
          "free_text": ""
        },
        "2": {
          "x4_code": "(7-N-15(A,EL),,WID)",
          "0": {
            "code": [
              "7-N-15",
              [
                "A,EL"
              ],
              ",,WID"
            ],
            "type": null,
            "target": "7-N-15",
            "process": "A,EL",
            "sf49": ",,WID",
            "sf4": null,
            "sf5": null,
            "sf6": "WID",
            "sf7": null,
            "sf8": null,
            "sf9": null
          },
          "type": null,
          "free_text": ""
        }
      },
      "common": null,
      "data": {
        "heads": [
          "DATA      1",
          "DATA      2",
          "FLAG"
        ],
        "units": [
          "MEV",
          "KEV",
          "NO-DIM"
        ],
        "data": [
          [
            4.127,
            4.22,
            4.49,
            4.53,
            4.7,
            4.78,
            4.93,
            5.005,
            5.018,
            5.116,
            5.203,
            5.232,
            5.25,
            5.284,
            5.481
          ],
          [
            8.0,
            80.0,
            90.0,
            null,
            30.0,
            8.0,
            260.0,
            8.0,
            5.0,
            8.0,
            8.0,
            6.0,
            65.0,
            10.0,
            10.0
          ],
          [
            null,
            null,
            null,
            1.0,
            null,
            null,
            null,
            1.0,
            1.0,
            null,
            null,
            null,
            null,
            null,
            null
          ]
        ]
      }
    }
  },
  "experimental_conditions": {
    "001": {
      "detector": {
        "0": [
          {
            "x4_code": "(CSICR)",
            "free_txt": [
              " 2-3 mils thick CsI(Tl) crystal mounted on a",
              "Dumont 6291 photomultiplier tube."
            ]
          }
        ]
      },
      "err-analys": {
        "0": [
          {
            "x4_code": "(EN-ERR)",
            "free_txt": [
              " Approximate uncertainty in energy scale."
            ]
          }
        ]
      },
      "facility": {
        "0": [
          {
            "x4_code": "(VDG,1USACOL)",
            "free_txt": []
          }
        ]
      },
      "method": {
        "0": [
          {
            "x4_code": "(BCINT,ASPEC)",
            "free_txt": [
              " Excitation curves were run at six",
              "angles in energy steps from 2 to 5 keV and covered",
              "the energy range from 1.75 to 5.50 MeV. The selection",
              "of the scattering angles was governed by the",
              "dependence of the coherent scattering amplitude on",
              "the orbital angular momentum L. This procedure was",
              "followed since it is possible to obtain an indication",
              "of the L value responsible for a particular resonance",
              "by the disappearance of an anomaly in the excitation",
              "curve at the scattering angle corresponding to a zero",
              "of the Legendre polynomial."
            ]
          }
        ]
      },
      "monitor": {
        "0": [
          {
            "x4_code": null,
            "free_txt": [
              "Beam energy calibrated using 7Li(p,n)7Be threshold",
              "energy."
            ]
          }
        ]
      },
      "part-det": {
        "0": [
          {
            "x4_code": "(A)",
            "free_txt": []
          }
        ]
      },
      "sample": {
        "0": [
          {
            "x4_code": "(7-N-15,ENR=0.95)",
            "free_txt": [
              " Nitrogen gas sample, 15N",
              "concentration averaged 95 atom percent. Major",
              "contaminants were 16O and 14N. The target thicknesses",
              "were varied  in the range from 2 to 4 kev depending on",
              "the cross section."
            ]
          }
        ]
      }
    },
    "002": {
      "err-analys": {
        "0": [
          {
            "x4_code": "(ERR-T)",
            "free_txt": [
              " The average over-all rms error on the",
              "measured cross sections is estimated at about 6.2%."
            ]
          },
          {
            "x4_code": "(ERR-S)",
            "free_txt": [
              "counting statistics, average 3.0%."
            ]
          },
          {
            "x4_code": "(ERR-1)",
            "free_txt": [
              " geometry, 0.28%."
            ]
          },
          {
            "x4_code": "(ERR-2)",
            "free_txt": [
              " uncertainty in background, average 1.0%."
            ]
          },
          {
            "x4_code": "(ERR-3,,1.3)",
            "free_txt": [
              " maximum angular uncertainty, maximum 1.3%."
            ]
          },
          {
            "x4_code": "(ERR-4)",
            "free_txt": [
              " current integration, 0.7%."
            ]
          },
          {
            "x4_code": "(ERR-5)",
            "free_txt": [
              " gas pressure, average 0.5%."
            ]
          },
          {
            "x4_code": "(ERR-6,,5.0)",
            "free_txt": [
              " target gas impurities, maximum 5.0%."
            ]
          },
          {
            "x4_code": "(ERR-7,,0.2)",
            "free_txt": [
              " maximum error in scattering angle 0.2 deg."
            ]
          }
        ]
      },
      "status": {
        "0": [
          {
            "x4_code": "(CURVE)",
            "free_txt": [
              " Figs. 3-6 of reference."
            ]
          }
        ]
      }
    },
    "003": {
      "err-analys": {
        "0": [
          {
            "x4_code": "(ERR-T)",
            "free_txt": [
              " The average over-all rms error on the",
              "measured cross sections is estimated at about 6.2%."
            ]
          },
          {
            "x4_code": "(ERR-S)",
            "free_txt": [
              "counting statistics, average 3.0%."
            ]
          },
          {
            "x4_code": "(ERR-1)",
            "free_txt": [
              " geometry, 0.28%."
            ]
          },
          {
            "x4_code": "(ERR-2)",
            "free_txt": [
              " uncertainty in background, average 1.0%."
            ]
          },
          {
            "x4_code": "(ERR-3,,1.3)",
            "free_txt": [
              " maximum angular uncertainty, maximum 1.3%."
            ]
          },
          {
            "x4_code": "(ERR-4)",
            "free_txt": [
              " current integration, 0.7%."
            ]
          },
          {
            "x4_code": "(ERR-5)",
            "free_txt": [
              " gas pressure, average 0.5%."
            ]
          },
          {
            "x4_code": "(ERR-6,,5.0)",
            "free_txt": [
              " target gas impurities, maximum 5.0%."
            ]
          },
          {
            "x4_code": "(ERR-7,,0.2)",
            "free_txt": [
              " maximum error in scattering angle 0.2 deg."
            ]
          }
        ]
      },
      "status": {
        "0": [
          {
            "x4_code": "(CURVE)",
            "free_txt": [
              " Figs. 3-6 of reference."
            ]
          }
        ]
      }
    },
    "004": {
      "err-analys": {
        "0": [
          {
            "x4_code": "(ERR-T)",
            "free_txt": [
              " The average over-all rms error on the",
              "measured cross sections is estimated at about 6.2%."
            ]
          },
          {
            "x4_code": "(ERR-S)",
            "free_txt": [
              "counting statistics, average 3.0%."
            ]
          },
          {
            "x4_code": "(ERR-1)",
            "free_txt": [
              " geometry, 0.28%."
            ]
          },
          {
            "x4_code": "(ERR-2)",
            "free_txt": [
              " uncertainty in background, average 1.0%."
            ]
          },
          {
            "x4_code": "(ERR-3,,1.3)",
            "free_txt": [
              " maximum angular uncertainty, maximum 1.3%."
            ]
          },
          {
            "x4_code": "(ERR-4)",
            "free_txt": [
              " current integration, 0.7%."
            ]
          },
          {
            "x4_code": "(ERR-5)",
            "free_txt": [
              " gas pressure, average 0.5%."
            ]
          },
          {
            "x4_code": "(ERR-6,,5.0)",
            "free_txt": [
              " target gas impurities, maximum 5.0%."
            ]
          },
          {
            "x4_code": "(ERR-7,,0.2)",
            "free_txt": [
              " maximum error in scattering angle 0.2 deg."
            ]
          }
        ]
      },
      "status": {
        "0": [
          {
            "x4_code": "(CURVE)",
            "free_txt": [
              " Figs. 3-6 of reference."
            ]
          }
        ]
      }
    },
    "005": {
      "err-analys": {
        "0": [
          {
            "x4_code": "(ERR-T)",
            "free_txt": [
              " The average over-all rms error on the",
              "measured cross sections is estimated at about 6.2%."
            ]
          },
          {
            "x4_code": "(ERR-S)",
            "free_txt": [
              "counting statistics, average 3.0%."
            ]
          },
          {
            "x4_code": "(ERR-1)",
            "free_txt": [
              " geometry, 0.28%."
            ]
          },
          {
            "x4_code": "(ERR-2)",
            "free_txt": [
              " uncertainty in background, average 1.0%."
            ]
          },
          {
            "x4_code": "(ERR-3,,1.3)",
            "free_txt": [
              " maximum angular uncertainty, maximum 1.3%."
            ]
          },
          {
            "x4_code": "(ERR-4)",
            "free_txt": [
              " current integration, 0.7%."
            ]
          },
          {
            "x4_code": "(ERR-5)",
            "free_txt": [
              " gas pressure, average 0.5%."
            ]
          },
          {
            "x4_code": "(ERR-6,,5.0)",
            "free_txt": [
              " target gas impurities, maximum 5.0%."
            ]
          },
          {
            "x4_code": "(ERR-7,,0.2)",
            "free_txt": [
              " maximum error in scattering angle 0.2 deg."
            ]
          }
        ]
      },
      "status": {
        "0": [
          {
            "x4_code": "(CURVE)",
            "free_txt": [
              " Figs. 3-6 of reference."
            ]
          }
        ]
      }
    },
    "006": {
      "err-analys": {
        "0": [
          {
            "x4_code": "(ERR-T)",
            "free_txt": [
              " The average over-all rms error on the",
              "measured cross sections is estimated at about 6.2%."
            ]
          },
          {
            "x4_code": "(ERR-S)",
            "free_txt": [
              "counting statistics, average 3.0%."
            ]
          },
          {
            "x4_code": "(ERR-1)",
            "free_txt": [
              " geometry, 0.28%."
            ]
          },
          {
            "x4_code": "(ERR-2)",
            "free_txt": [
              " uncertainty in background, average 1.0%."
            ]
          },
          {
            "x4_code": "(ERR-3,,1.3)",
            "free_txt": [
              " maximum angular uncertainty, maximum 1.3%."
            ]
          },
          {
            "x4_code": "(ERR-4)",
            "free_txt": [
              " current integration, 0.7%."
            ]
          },
          {
            "x4_code": "(ERR-5)",
            "free_txt": [
              " gas pressure, average 0.5%."
            ]
          },
          {
            "x4_code": "(ERR-6,,5.0)",
            "free_txt": [
              " target gas impurities, maximum 5.0%."
            ]
          },
          {
            "x4_code": "(ERR-7,,0.2)",
            "free_txt": [
              " maximum error in scattering angle 0.2 deg."
            ]
          }
        ]
      },
      "status": {
        "0": [
          {
            "x4_code": "(CURVE)",
            "free_txt": [
              " Figs. 3-6 of reference."
            ]
          }
        ]
      }
    },
    "007": {
      "err-analys": {
        "0": [
          {
            "x4_code": "(ERR-T)",
            "free_txt": [
              " The average over-all rms error on the",
              "measured cross sections is estimated at about 6.2%."
            ]
          },
          {
            "x4_code": "(ERR-S)",
            "free_txt": [
              "counting statistics, average 3.0%."
            ]
          },
          {
            "x4_code": "(ERR-1)",
            "free_txt": [
              " geometry, 0.28%."
            ]
          },
          {
            "x4_code": "(ERR-2)",
            "free_txt": [
              " uncertainty in background, average 1.0%."
            ]
          },
          {
            "x4_code": "(ERR-3,,1.3)",
            "free_txt": [
              " maximum angular uncertainty, maximum 1.3%."
            ]
          },
          {
            "x4_code": "(ERR-4)",
            "free_txt": [
              " current integration, 0.7%."
            ]
          },
          {
            "x4_code": "(ERR-5)",
            "free_txt": [
              " gas pressure, average 0.5%."
            ]
          },
          {
            "x4_code": "(ERR-6,,5.0)",
            "free_txt": [
              " target gas impurities, maximum 5.0%."
            ]
          },
          {
            "x4_code": "(ERR-7,,0.2)",
            "free_txt": [
              " maximum error in scattering angle 0.2 deg."
            ]
          }
        ]
      },
      "status": {
        "0": [
          {
            "x4_code": "(CURVE)",
            "free_txt": [
              " Figs. 3-6 of reference."
            ]
          }
        ]
      }
    },
    "008": {
      "analysis": {
        "0": [
          {
            "x4_code": "(SHAPE)",
            "free_txt": [
              " A phase-shift analysis of the cross-section",
              "curve from 1.85 MeV to 4.00 MeV yielded the values",
              "for the resonant energies, spins and parities and",
              "reduced widths of the levels in this energy range."
            ]
          }
        ]
      },
      "status": {
        "0": [
          {
            "x4_code": "(TABLE)",
            "free_txt": [
              " Table II, page 239."
            ]
          }
        ]
      }
    },
    "009": {
      "comment": {
        "0": [
          {
            "x4_code": null,
            "free_txt": [
              "Summary of positions of levels observed for which no",
              "spin and parity assignments have been made. The level",
              "widths are estimated from the data. They have not",
              "been corrected for beam energy spread and target",
              "thickness."
            ]
          }
        ]
      },
      "flag": {
        "0": [
          {
            "x4_code": "(1.)",
            "free_txt": [
              " Uncertain level."
            ]
          }
        ]
      },
      "status": {
        "0": [
          {
            "x4_code": "(TABLE)",
            "free_txt": [
              " Table III, page 240."
            ]
          }
        ]
      }
    }
  }
}