{
  "bib": {
    "title": "Total Neutron Yield from the (alpha,n) Reaction on 21,22Ne",
    "authors": [
      {
        "name": "F.X.Haas"
      },
      {
        "name": "J.K.Bair"
      }
    ],
    "institutes": [
      {
        "x4_code": "(1USAMND)",
        "free_txt": ""
      },
      {
        "x4_code": "(1USAORL)",
        "free_txt": ""
      }
    ],
    "references": {
      "0": [
        {
          "x4_code": "(J,PR/C,7,2432,1973)",
          "free_txt": [],
          "publication_year": "1973",
          "doi": "10.1103/PhysRevC.7.2432"
        },
        {
          "x4_code": "(J,PR/C,10,961,1974)",
          "free_txt": [
            " Erratum.",
            "#doi:10.1103/PhysRevC.10.961"
          ],
          "publication_year": "1974"
        },
        {
          "x4_code": "(R,ORNL-4659(UC-34),38,1970)",
          "free_txt": [],
          "publication_year": "1970"
        }
      ]
    },
    "facility": {
      "0": [
        {
          "x4_code": "(VDG,1USAORL)",
          "free_txt": [],
          "facility_type": "(VDG)",
          "insitute": "(1USAORL)"
        }
      ]
    },
    "history": [
      {
        "x4_code": "(19990708C)",
        "free_txt": [
          " VM"
        ]
      },
      {
        "x4_code": "(20140128A)",
        "free_txt": [
          " BP: Added ORNL report data, doi, and",
          "erratum strength functions. Digitized data from the",
          "Figs. 1 and 2 using the report Figs. 5,6."
        ]
      }
    ]
  },
  "C0515-001": {
    "extra_information": {
      "detector": {
        "0": [
          {
            "x4_code": null,
            "free_txt": [
              "Graphite-sphere neutron detector."
            ]
          }
        ]
      },
      "facility": {
        "0": [
          {
            "x4_code": "(VDG,1USAORL)",
            "free_txt": []
          }
        ]
      }
    }
  },
  "C0515-002": {
    "reaction": {
      "0": {
        "x4_code": "(10-NE-21(A,N)12-MG-24,,SIG)",
        "0": {
          "code": [
            "10-NE-21",
            [
              "A,N"
            ],
            "12-MG-24,,SIG"
          ],
          "type": null,
          "target": "10-NE-21",
          "process": "A,N",
          "sf49": "12-MG-24,,SIG",
          "sf4": "12-MG-24",
          "sf5": null,
          "sf6": "SIG",
          "sf7": null,
          "sf8": null,
          "sf9": null
        },
        "type": null,
        "free_text": ""
      }
    },
    "extra_information": {
      "correction": {
        "0": [
          {
            "x4_code": null,
            "free_txt": [
              "Not corrected for variation in detector efficiency",
              "with neutron energy."
            ]
          }
        ]
      },
      "err-analys": {
        "0": [
          {
            "x4_code": "(DATA-ERR)",
            "free_txt": [
              " Exclusive of the detector efficiency",
              "correction, the error in the  cross sections is 12%",
              "for energies above about 1.7 MeV."
            ]
          }
        ]
      },
      "monitor": {
        "0": [
          {
            "x4_code": "(10-NE-21(A,N)12-MG-24,,SIG)",
            "free_txt": [
              " Absolute scale determined",
              "from measurements at 3-4 MeV on a gas target highly",
              "enriched in 21Ne."
            ]
          }
        ]
      },
      "sample": {
        "0": [
          {
            "x4_code": null,
            "free_txt": [
              "\"Drive-in\" target made by bombarding a tantalum blank",
              "with 25-keV 21Ne ions."
            ]
          }
        ]
      },
      "status": {
        "0": [
          {
            "x4_code": "(CURVE)",
            "free_txt": [
              " Fig. 5, page 43 of the ORNL report, or Fig. 1",
              "page 2432 in PR/C,7,2432,1973. Smooth curve."
            ]
          }
        ]
      }
    },
    "common": null,
    "data": {
      "heads": [
        "EN",
        "DATA",
        "DATA-ERR"
      ],
      "units": [
        "MEV",
        "MB",
        "MB"
      ],
      "data": [
        [
          1.97,
          1.983,
          2.0,
          2.009,
          2.024,
          2.039,
          2.048,
          2.057,
          2.068,
          2.076,
          2.087,
          2.098,
          2.109,
          2.122,
          2.131,
          2.144,
          2.155,
          2.166,
          2.177,
          2.186,
          2.196,
          2.205,
          2.214,
          2.225,
          2.238,
          2.244,
          2.247,
          2.249,
          2.249,
          2.249,
          2.251,
          2.253,
          2.253,
          2.255,
          2.257,
          2.257,
          2.259,
          2.259,
          2.259,
          2.259,
          2.259,
          2.259,
          2.26,
          2.261,
          2.266,
          2.274,
          2.278,
          2.28,
          2.28,
          2.28,
          2.282,
          2.285,
          2.285,
          2.285,
          2.289,
          2.289,
          2.291,
          2.293,
          2.293,
          2.295,
          2.3,
          2.302,
          2.306,
          2.308,
          2.316,
          2.323,
          2.331,
          2.342,
          2.352,
          2.359,
          2.369,
          2.377,
          2.39,
          2.398,
          2.407,
          2.419,
          2.428,
          2.44,
          2.451,
          2.459,
          2.47,
          2.476,
          2.48,
          2.486,
          2.493,
          2.503,
          2.516,
          2.524,
          2.528,
          2.535,
          2.545,
          2.554,
          2.562,
          2.573,
          2.579,
          2.585,
          2.593,
          2.604,
          2.608,
          2.614,
          2.614,
          2.619,
          2.621,
          2.621,
          2.627,
          2.635,
          2.635,
          2.637,
          2.64,
          2.644,
          2.652,
          2.661,
          2.665,
          2.665,
          2.665,
          2.667,
          2.671,
          2.673,
          2.681,
          2.69,
          2.694,
          2.7,
          2.707,
          2.713,
          2.723,
          2.725,
          2.727,
          2.734,
          2.738,
          2.74,
          2.742,
          2.742,
          2.746,
          2.755,
          2.759,
          2.763,
          2.767,
          2.771,
          2.776,
          2.782,
          2.788,
          2.795,
          2.797,
          2.799,
          2.801,
          2.801,
          2.801,
          2.801,
          2.801,
          2.801,
          2.803,
          2.803,
          2.803,
          2.803,
          2.803,
          2.803,
          2.803,
          2.805,
          2.805,
          2.805,
          2.807,
          2.807,
          2.807,
          2.809,
          2.809,
          2.809,
          2.811,
          2.813,
          2.813,
          2.813,
          2.817,
          2.817,
          2.817,
          2.819,
          2.819,
          2.819,
          2.819,
          2.823,
          2.823,
          2.825,
          2.829,
          2.829,
          2.833,
          2.838,
          2.844,
          2.848,
          2.85,
          2.85,
          2.85,
          2.855,
          2.857,
          2.857,
          2.857,
          2.857,
          2.859,
          2.859,
          2.859,
          2.859,
          2.859,
          2.859,
          2.859,
          2.859,
          2.859,
          2.859,
          2.859,
          2.861,
          2.863,
          2.863,
          2.863,
          2.865,
          2.866,
          2.866,
          2.866,
          2.866,
          2.868,
          2.868,
          2.87,
          2.87,
          2.872,
          2.872,
          2.874,
          2.874,
          2.876,
          2.876,
          2.879,
          2.879,
          2.881,
          2.885,
          2.893,
          2.895,
          2.895,
          2.895,
          2.895,
          2.897,
          2.897,
          2.899,
          2.899,
          2.899,
          2.901,
          2.903,
          2.903,
          2.905,
          2.906,
          2.907,
          2.91,
          2.91,
          2.912,
          2.914,
          2.92,
          2.926,
          2.931,
          2.931,
          2.931,
          2.933,
          2.933,
          2.935,
          2.935,
          2.935,
          2.937,
          2.937,
          2.937,
          2.937,
          2.937,
          2.939,
          2.939,
          2.941,
          2.948,
          2.956,
          2.956,
          2.958,
          2.96,
          2.96,
          2.96,
          2.962,
          2.962,
          2.962,
          2.964,
          2.964,
          2.966,
          2.968,
          2.968,
          2.968,
          2.968,
          2.97,
          2.97,
          2.97,
          2.97,
          2.97,
          2.97,
          2.972,
          2.972,
          2.972,
          2.972,
          2.972,
          2.974,
          2.974,
          2.974,
          2.976,
          2.976,
          2.978,
          2.978,
          2.978,
          2.98,
          2.98,
          2.98,
          2.98,
          2.98,
          2.98,
          2.982,
          2.982,
          2.982,
          2.982,
          2.982,
          2.984,
          2.986,
          2.99,
          2.99,
          2.99,
          2.99,
          2.99,
          2.99,
          2.99,
          2.99,
          2.99,
          2.99,
          2.99,
          2.99,
          2.99,
          2.99,
          2.99,
          2.992,
          2.992,
          2.992,
          2.992,
          2.992,
          2.992,
          2.994,
          2.998,
          2.998,
          3.002,
          3.011,
          3.011,
          3.013,
          3.013,
          3.013,
          3.013,
          3.013,
          3.015,
          3.015,
          3.015,
          3.015,
          3.015,
          3.015,
          3.015,
          3.015,
          3.017,
          3.017,
          3.02,
          3.02,
          3.02,
          3.022,
          3.022,
          3.022,
          3.022,
          3.022,
          3.024,
          3.024,
          3.024,
          3.024,
          3.026,
          3.026,
          3.028,
          3.028,
          3.028,
          3.028,
          3.028,
          3.029,
          3.029,
          3.029,
          3.031,
          3.031,
          3.031,
          3.033,
          3.033,
          3.033,
          3.035,
          3.037,
          3.041,
          3.041,
          3.048,
          3.048,
          3.05,
          3.05,
          3.05,
          3.05,
          3.05,
          3.052,
          3.054,
          3.054,
          3.054,
          3.054,
          3.056,
          3.056,
          3.059,
          3.059,
          3.059,
          3.059,
          3.059,
          3.063,
          3.063,
          3.065,
          3.067,
          3.067,
          3.069,
          3.071,
          3.074,
          3.078,
          3.084,
          3.09,
          3.097,
          3.102,
          3.111,
          3.118,
          3.123,
          3.129,
          3.134,
          3.143,
          3.148,
          3.153,
          3.157,
          3.164,
          3.164,
          3.167,
          3.171,
          3.173,
          3.178,
          3.182,
          3.187,
          3.192,
          3.197,
          3.203,
          3.208,
          3.215,
          3.217,
          3.221,
          3.224,
          3.228,
          3.233,
          3.237,
          3.241,
          3.242,
          3.244,
          3.246,
          3.248,
          3.252,
          3.254,
          3.259,
          3.261,
          3.267,
          3.273,
          3.277,
          3.281,
          3.281,
          3.283,
          3.285,
          3.285,
          3.285,
          3.285,
          3.285,
          3.286,
          3.291,
          3.296,
          3.298,
          3.302,
          3.302,
          3.302,
          3.302,
          3.302,
          3.305,
          3.308,
          3.311,
          3.315,
          3.318,
          3.322,
          3.323,
          3.327,
          3.327,
          3.329,
          3.331,
          3.334,
          3.335,
          3.336,
          3.336,
          3.337,
          3.339,
          3.339,
          3.342,
          3.342,
          3.342,
          3.342,
          3.342,
          3.343,
          3.347,
          3.347,
          3.347,
          3.349,
          3.352,
          3.352,
          3.355,
          3.355,
          3.355,
          3.358,
          3.36,
          3.36,
          3.361,
          3.362,
          3.363,
          3.365,
          3.369,
          3.372,
          3.373,
          3.377,
          3.378,
          3.38,
          3.38,
          3.381,
          3.381,
          3.384,
          3.386,
          3.388,
          3.393,
          3.398,
          3.404,
          3.405,
          3.409,
          3.415,
          3.418,
          3.419,
          3.422,
          3.428,
          3.434,
          3.44,
          3.444,
          3.45,
          3.456,
          3.458,
          3.459,
          3.459,
          3.459,
          3.459,
          3.46,
          3.462,
          3.464,
          3.466,
          3.468,
          3.471,
          3.472,
          3.474,
          3.477,
          3.477,
          3.479,
          3.481,
          3.485,
          3.489,
          3.492,
          3.496,
          3.5,
          3.506,
          3.511,
          3.516,
          3.519,
          3.523,
          3.528,
          3.533,
          3.536,
          3.539,
          3.542,
          3.548,
          3.553,
          3.558,
          3.562,
          3.567,
          3.569,
          3.572,
          3.574,
          3.574,
          3.575,
          3.578,
          3.579,
          3.581,
          3.584,
          3.587,
          3.589,
          3.591,
          3.592,
          3.593,
          3.595,
          3.595,
          3.598,
          3.602,
          3.605,
          3.61,
          3.612,
          3.617,
          3.618,
          3.62,
          3.624,
          3.63,
          3.633,
          3.637,
          3.643,
          3.648,
          3.65,
          3.654,
          3.656,
          3.661,
          3.664,
          3.665,
          3.666,
          3.668,
          3.67,
          3.672,
          3.674,
          3.674,
          3.675,
          3.679,
          3.681,
          3.681,
          3.686,
          3.686,
          3.691,
          3.691,
          3.693,
          3.694,
          3.694,
          3.698,
          3.699,
          3.702,
          3.702,
          3.706,
          3.706,
          3.71,
          3.71,
          3.711,
          3.715,
          3.715,
          3.718,
          3.718,
          3.719,
          3.724,
          3.727,
          3.729,
          3.735,
          3.741,
          3.746,
          3.752,
          3.758,
          3.761,
          3.766,
          3.768,
          3.771,
          3.771,
          3.772,
          3.772,
          3.772,
          3.772,
          3.775,
          3.777,
          3.777,
          3.777,
          3.778,
          3.778,
          3.779,
          3.779,
          3.784,
          3.787,
          3.791,
          3.793,
          3.797,
          3.797,
          3.799,
          3.8,
          3.802,
          3.802,
          3.804,
          3.809,
          3.809,
          3.81,
          3.81,
          3.81,
          3.814,
          3.814,
          3.816,
          3.818,
          3.821,
          3.822,
          3.825,
          3.828,
          3.83,
          3.835,
          3.839,
          3.843,
          3.847,
          3.849,
          3.852,
          3.852,
          3.855,
          3.86,
          3.866,
          3.868,
          3.871,
          3.873,
          3.877,
          3.883,
          3.887,
          3.89,
          3.892,
          3.893,
          3.896,
          3.9,
          3.904,
          3.908,
          3.908,
          3.908,
          3.91,
          3.914,
          3.914,
          3.917,
          3.917,
          3.92,
          3.92,
          3.922,
          3.924,
          3.924,
          3.924,
          3.928,
          3.931,
          3.935,
          3.939,
          3.942,
          3.946,
          3.952,
          3.958,
          3.962,
          3.967,
          3.97,
          3.974,
          3.979,
          3.984,
          3.987,
          3.989,
          3.989,
          3.991,
          3.993,
          3.996,
          3.996,
          3.999,
          3.999,
          3.999,
          4.003,
          4.003,
          4.004,
          4.005,
          4.006,
          4.008,
          4.011,
          4.014,
          4.016,
          4.02,
          4.025,
          4.03,
          4.036,
          4.04,
          4.041,
          4.043,
          4.045,
          4.045,
          4.045,
          4.046,
          4.046,
          4.046,
          4.047,
          4.048,
          4.048,
          4.049,
          4.049,
          4.053,
          4.053,
          4.053,
          4.054,
          4.054,
          4.055,
          4.058,
          4.058,
          4.058,
          4.059,
          4.059,
          4.061,
          4.061,
          4.061,
          4.062,
          4.062,
          4.064,
          4.068,
          4.073,
          4.078,
          4.079,
          4.08,
          4.081,
          4.081,
          4.081,
          4.083,
          4.083,
          4.083,
          4.083,
          4.083,
          4.083,
          4.084,
          4.084,
          4.085,
          4.085,
          4.086,
          4.086,
          4.086,
          4.086,
          4.089,
          4.09,
          4.091,
          4.091,
          4.091,
          4.091,
          4.093,
          4.093,
          4.095,
          4.095,
          4.096,
          4.098,
          4.098,
          4.099,
          4.099,
          4.102,
          4.103,
          4.103,
          4.103,
          4.104,
          4.104,
          4.104,
          4.104,
          4.105,
          4.106,
          4.11,
          4.111,
          4.111,
          4.114,
          4.116,
          4.12,
          4.123,
          4.127,
          4.13,
          4.136,
          4.14,
          4.143,
          4.147,
          4.148,
          4.151,
          4.152,
          4.153,
          4.153,
          4.154,
          4.155,
          4.156,
          4.156,
          4.156,
          4.158,
          4.158,
          4.159,
          4.159,
          4.159,
          4.16,
          4.164,
          4.167,
          4.171,
          4.173,
          4.175,
          4.178,
          4.178,
          4.18,
          4.183,
          4.186,
          4.192,
          4.193,
          4.196,
          4.197,
          4.198,
          4.202,
          4.202,
          4.202,
          4.203,
          4.203,
          4.206,
          4.21,
          4.214,
          4.216,
          4.22,
          4.227,
          4.234,
          4.241,
          4.247,
          4.251,
          4.255,
          4.256,
          4.26,
          4.26,
          4.261,
          4.262,
          4.264,
          4.268,
          4.272,
          4.273,
          4.277,
          4.278,
          4.281,
          4.286,
          4.289,
          4.293,
          4.297,
          4.301,
          4.304,
          4.31,
          4.315,
          4.317,
          4.323,
          4.328,
          4.335,
          4.341,
          4.343,
          4.346,
          4.347,
          4.351,
          4.352,
          4.355,
          4.355,
          4.355,
          4.358,
          4.358,
          4.359,
          4.361,
          4.362,
          4.362,
          4.366,
          4.372,
          4.376,
          4.377,
          4.38,
          4.385,
          4.39,
          4.393,
          4.399,
          4.404,
          4.404,
          4.406,
          4.409,
          4.411,
          4.411,
          4.412,
          4.412,
          4.416,
          4.416,
          4.416,
          4.421,
          4.421,
          4.422,
          4.424,
          4.424,
          4.426,
          4.429,
          4.431,
          4.431,
          4.433,
          4.433,
          4.434,
          4.434,
          4.436,
          4.436,
          4.437,
          4.437,
          4.44,
          4.441,
          4.445,
          4.445,
          4.446,
          4.447,
          4.448,
          4.449,
          4.45,
          4.452,
          4.453,
          4.453,
          4.453,
          4.454,
          4.458,
          4.458,
          4.458,
          4.458,
          4.462,
          4.462,
          4.462,
          4.465,
          4.465,
          4.466,
          4.467,
          4.47,
          4.47,
          4.47,
          4.471,
          4.473,
          4.473,
          4.473,
          4.474,
          4.474,
          4.474,
          4.474,
          4.474,
          4.474,
          4.477,
          4.477,
          4.477,
          4.478,
          4.478,
          4.481,
          4.481,
          4.483,
          4.485,
          4.489,
          4.494,
          4.497,
          4.5,
          4.504,
          4.504,
          4.505,
          4.508,
          4.509,
          4.51,
          4.511,
          4.511,
          4.511,
          4.511,
          4.511,
          4.511,
          4.511,
          4.511,
          4.511,
          4.512,
          4.512,
          4.512,
          4.515,
          4.515,
          4.516,
          4.516,
          4.516,
          4.516,
          4.516,
          4.516,
          4.518,
          4.52,
          4.52,
          4.52,
          4.52,
          4.52,
          4.521,
          4.521,
          4.523,
          4.524,
          4.524,
          4.524,
          4.524,
          4.528,
          4.528,
          4.528,
          4.528,
          4.529,
          4.531,
          4.531,
          4.533,
          4.533,
          4.533,
          4.533,
          4.534,
          4.536,
          4.536,
          4.536,
          4.536,
          4.54,
          4.541,
          4.542,
          4.547,
          4.552,
          4.556,
          4.561,
          4.565,
          4.571,
          4.573,
          4.577,
          4.579,
          4.581,
          4.584,
          4.587,
          4.59,
          4.59,
          4.59,
          4.59,
          4.593,
          4.593,
          4.595,
          4.598,
          4.598,
          4.599,
          4.602,
          4.603,
          4.605,
          4.608,
          4.611,
          4.618,
          4.626,
          4.631,
          4.635,
          4.64,
          4.641,
          4.645,
          4.648,
          4.652,
          4.66,
          4.666,
          4.67,
          4.674,
          4.677,
          4.683,
          4.686,
          4.687,
          4.689,
          4.689,
          4.689,
          4.689,
          4.689,
          4.689,
          4.689,
          4.689,
          4.689,
          4.689,
          4.693,
          4.699,
          4.704,
          4.706,
          4.709,
          4.71,
          4.714,
          4.716,
          4.722,
          4.729,
          4.735,
          4.74,
          4.746,
          4.749,
          4.753,
          4.756,
          4.76,
          4.762,
          4.766,
          4.77,
          4.772,
          4.774,
          4.778,
          4.779,
          4.783,
          4.783,
          4.785,
          4.785,
          4.786,
          4.792,
          4.798,
          4.798,
          4.799,
          4.802,
          4.804,
          4.806,
          4.812,
          4.816,
          4.822,
          4.826,
          4.827,
          4.83,
          4.831,
          4.835,
          4.835,
          4.835,
          4.84,
          4.843,
          4.851,
          4.855,
          4.859,
          4.859,
          4.861,
          4.866,
          4.873,
          4.879,
          4.883,
          4.884,
          4.884,
          4.89,
          4.896,
          4.898,
          4.899,
          4.899,
          4.899,
          4.899,
          4.901,
          4.902,
          4.904,
          4.906,
          4.909,
          4.911,
          4.917,
          4.924,
          4.929,
          4.93,
          4.933,
          4.936,
          4.937,
          4.941,
          4.942,
          4.943,
          4.945,
          4.949,
          4.949,
          4.954,
          4.959,
          4.962,
          4.966,
          4.966,
          4.971,
          4.971,
          4.974,
          4.978,
          4.978,
          4.98,
          4.983,
          4.983,
          4.987,
          4.987,
          4.989,
          4.99,
          4.991,
          4.995,
          4.995,
          4.995,
          4.998,
          4.998,
          4.998,
          4.998,
          4.999,
          4.999,
          5.002,
          5.003,
          5.003,
          5.005,
          5.01,
          5.01,
          5.015,
          5.018,
          5.022,
          5.028,
          5.035,
          5.039,
          5.041,
          5.043,
          5.047,
          5.051,
          5.054,
          5.056,
          5.059,
          5.06,
          5.061,
          5.061,
          5.065,
          5.065,
          5.065,
          5.07,
          5.073,
          5.077,
          5.079,
          5.084,
          5.087,
          5.089,
          5.089,
          5.089,
          5.09,
          5.09,
          5.092,
          5.093,
          5.093,
          5.095,
          5.095,
          5.095,
          5.097,
          5.097,
          5.098,
          5.098,
          5.098,
          5.098,
          5.098,
          5.101,
          5.102,
          5.102,
          5.103,
          5.108,
          5.108,
          5.108,
          5.111,
          5.112,
          5.115,
          5.116,
          5.117,
          5.118,
          5.122,
          5.126,
          5.127,
          5.128,
          5.13,
          5.13,
          5.132,
          5.134,
          5.134,
          5.135,
          5.135,
          5.14,
          5.141
        ],
        [
          0.299,
          0.3,
          0.353,
          0.511,
          0.46,
          0.565,
          0.828,
          1.039,
          1.145,
          0.988,
          0.778,
          0.622,
          0.57,
          0.623,
          0.728,
          0.624,
          0.782,
          0.783,
          0.784,
          0.889,
          1.205,
          1.468,
          1.363,
          1.364,
          1.47,
          1.733,
          2.485,
          3.295,
          2.941,
          2.132,
          3.649,
          4.559,
          3.902,
          4.256,
          5.166,
          4.863,
          7.139,
          6.886,
          6.633,
          6.33,
          6.127,
          5.824,
          5.47,
          7.442,
          7.695,
          7.797,
          7.696,
          7.494,
          7.241,
          6.938,
          6.584,
          6.23,
          5.876,
          5.573,
          5.32,
          4.966,
          4.612,
          4.359,
          4.106,
          3.803,
          3.449,
          3.146,
          2.893,
          2.59,
          2.388,
          2.186,
          2.086,
          1.935,
          1.986,
          1.936,
          1.886,
          1.836,
          1.786,
          1.837,
          1.736,
          1.838,
          1.839,
          1.789,
          1.84,
          1.891,
          1.993,
          2.246,
          2.55,
          2.753,
          3.006,
          3.158,
          3.159,
          2.907,
          2.705,
          2.402,
          2.25,
          2.15,
          2.1,
          2.1,
          2.303,
          2.556,
          2.708,
          2.76,
          3.063,
          3.569,
          3.317,
          3.823,
          4.328,
          4.076,
          4.582,
          4.38,
          4.076,
          3.824,
          3.571,
          3.369,
          3.268,
          3.37,
          4.179,
          3.926,
          3.623,
          4.432,
          4.736,
          4.433,
          4.281,
          4.231,
          4.333,
          4.434,
          4.536,
          4.688,
          4.84,
          5.144,
          5.447,
          5.701,
          6.055,
          6.814,
          6.561,
          6.257,
          6.966,
          7.118,
          6.966,
          6.764,
          6.461,
          6.158,
          5.905,
          5.704,
          5.805,
          6.008,
          6.16,
          6.463,
          8.436,
          8.183,
          7.98,
          7.272,
          7.02,
          6.767,
          9.649,
          9.397,
          9.144,
          8.941,
          8.689,
          7.778,
          7.525,
          11.116,
          10.863,
          9.852,
          10.61,
          10.408,
          10.155,
          11.774,
          11.571,
          11.319,
          12.027,
          12.937,
          12.634,
          12.28,
          14.252,
          13.949,
          13.241,
          14.809,
          14.556,
          13.696,
          13.494,
          15.466,
          15.062,
          15.264,
          15.922,
          15.618,
          16.074,
          16.276,
          16.327,
          15.62,
          16.125,
          15.822,
          15.367,
          14.356,
          15.165,
          14.861,
          14.609,
          14.002,
          13.749,
          13.496,
          13.193,
          12.99,
          12.687,
          12.485,
          12.282,
          11.979,
          11.777,
          11.524,
          11.322,
          11.119,
          10.867,
          10.361,
          10.058,
          10.614,
          9.754,
          9.501,
          9.198,
          8.895,
          8.591,
          8.338,
          8.136,
          7.833,
          7.58,
          7.327,
          7.125,
          6.822,
          6.569,
          6.114,
          6.316,
          5.81,
          5.558,
          5.356,
          5.457,
          6.823,
          6.57,
          6.317,
          5.761,
          7.076,
          6.014,
          7.936,
          7.683,
          7.379,
          8.644,
          8.897,
          8.442,
          9.099,
          8.189,
          10.01,
          9.706,
          9.403,
          10.162,
          10.415,
          10.617,
          10.517,
          10.314,
          10.112,
          9.859,
          9.607,
          9.404,
          9.202,
          9.0,
          8.798,
          8.646,
          8.343,
          8.09,
          7.837,
          7.584,
          7.382,
          7.129,
          6.876,
          6.775,
          7.029,
          6.675,
          7.332,
          8.445,
          7.889,
          7.585,
          9.305,
          8.749,
          8.142,
          9.912,
          9.052,
          9.609,
          11.328,
          11.126,
          10.873,
          10.266,
          13.907,
          13.402,
          12.289,
          11.986,
          11.682,
          10.57,
          14.262,
          13.655,
          13.098,
          12.744,
          12.492,
          15.526,
          14.818,
          14.565,
          15.779,
          15.071,
          16.791,
          16.083,
          15.324,
          18.105,
          17.853,
          17.347,
          17.094,
          16.538,
          16.285,
          19.319,
          19.117,
          18.561,
          18.308,
          17.6,
          18.864,
          19.471,
          25.136,
          24.023,
          23.467,
          23.264,
          22.961,
          22.506,
          22.253,
          21.697,
          21.444,
          21.09,
          20.888,
          20.584,
          20.23,
          19.977,
          19.724,
          24.832,
          24.579,
          24.276,
          23.72,
          22.759,
          21.95,
          25.389,
          25.844,
          25.541,
          25.794,
          25.643,
          25.44,
          25.137,
          24.985,
          24.732,
          24.479,
          23.974,
          24.176,
          23.721,
          23.468,
          23.013,
          22.76,
          22.507,
          21.951,
          21.648,
          23.215,
          22.204,
          21.496,
          21.243,
          20.889,
          20.586,
          20.283,
          19.979,
          19.726,
          18.462,
          19.474,
          19.17,
          18.766,
          18.26,
          18.968,
          17.957,
          17.805,
          17.552,
          17.35,
          17.148,
          16.945,
          16.743,
          16.288,
          15.327,
          16.49,
          16.035,
          15.58,
          15.833,
          15.074,
          14.872,
          14.67,
          14.468,
          14.215,
          14.013,
          13.71,
          13.154,
          13.457,
          12.901,
          12.648,
          12.345,
          12.041,
          11.839,
          11.586,
          11.333,
          11.08,
          10.524,
          10.828,
          10.221,
          9.968,
          9.715,
          9.412,
          9.108,
          8.906,
          8.603,
          8.35,
          8.097,
          7.794,
          7.491,
          7.289,
          7.036,
          6.732,
          6.48,
          6.278,
          6.076,
          5.975,
          7.268,
          8.553,
          9.41,
          10.695,
          11.98,
          13.693,
          14.978,
          16.69,
          17.975,
          20.116,
          23.542,
          21.829,
          25.683,
          27.824,
          29.965,
          31.678,
          32.534,
          33.819,
          32.535,
          31.251,
          29.967,
          31.679,
          33.392,
          35.418,
          36.575,
          37.732,
          39.179,
          40.047,
          40.626,
          39.758,
          38.601,
          37.155,
          35.998,
          34.841,
          33.973,
          32.527,
          31.949,
          30.792,
          30.213,
          30.503,
          31.371,
          34.264,
          32.529,
          35.711,
          42.654,
          41.208,
          39.761,
          38.315,
          37.157,
          44.39,
          44.969,
          45.258,
          45.837,
          45.259,
          44.391,
          42.944,
          41.209,
          39.762,
          38.605,
          36.87,
          35.134,
          33.977,
          33.399,
          34.267,
          35.713,
          38.317,
          36.871,
          39.764,
          41.21,
          46.996,
          42.657,
          45.55,
          44.104,
          51.625,
          49.89,
          48.443,
          60.594,
          59.147,
          57.122,
          54.229,
          52.493,
          55.676,
          65.512,
          63.776,
          62.04,
          66.669,
          69.852,
          68.116,
          74.191,
          72.745,
          70.72,
          75.638,
          78.531,
          77.084,
          79.688,
          80.556,
          82.292,
          83.738,
          84.317,
          83.449,
          81.714,
          80.557,
          78.821,
          77.664,
          75.06,
          76.507,
          73.614,
          72.746,
          71.589,
          70.432,
          69.275,
          68.408,
          67.83,
          66.672,
          67.83,
          68.987,
          70.145,
          71.591,
          72.749,
          73.906,
          74.485,
          75.064,
          75.354,
          74.775,
          74.197,
          68.411,
          73.04,
          71.015,
          69.569,
          67.254,
          66.097,
          65.229,
          64.072,
          62.915,
          61.469,
          60.023,
          58.287,
          57.13,
          55.973,
          54.816,
          53.659,
          52.502,
          51.634,
          50.188,
          49.609,
          48.742,
          48.163,
          48.164,
          48.743,
          49.611,
          50.19,
          51.058,
          51.637,
          52.794,
          53.662,
          54.819,
          55.688,
          56.556,
          57.135,
          57.714,
          57.425,
          57.136,
          55.978,
          55.4,
          53.954,
          52.797,
          51.639,
          50.193,
          49.036,
          47.879,
          46.722,
          45.276,
          44.119,
          43.251,
          42.094,
          40.937,
          39.78,
          38.333,
          37.755,
          37.176,
          36.309,
          35.441,
          34.863,
          34.574,
          33.417,
          32.259,
          32.26,
          31.971,
          30.814,
          30.814,
          30.814,
          31.393,
          32.551,
          33.419,
          34.576,
          35.733,
          37.18,
          38.627,
          40.073,
          41.52,
          43.545,
          44.702,
          48.174,
          46.727,
          50.199,
          51.646,
          55.696,
          53.382,
          58.589,
          56.564,
          61.482,
          59.747,
          62.64,
          66.111,
          64.375,
          67.558,
          69.294,
          72.187,
          70.451,
          74.501,
          72.476,
          78.841,
          77.395,
          75.659,
          81.734,
          79.709,
          84.338,
          82.892,
          85.495,
          86.363,
          87.521,
          88.678,
          89.257,
          88.968,
          88.679,
          88.679,
          87.812,
          89.259,
          90.127,
          91.573,
          101.409,
          93.02,
          99.674,
          97.649,
          96.202,
          94.467,
          102.278,
          107.485,
          106.039,
          103.724,
          110.378,
          108.642,
          113.56,
          112.403,
          115.007,
          114.429,
          112.693,
          111.247,
          109.801,
          108.065,
          106.618,
          104.593,
          102.858,
          101.411,
          99.965,
          97.94,
          96.494,
          95.047,
          93.601,
          92.154,
          90.997,
          88.972,
          87.526,
          86.08,
          84.633,
          82.609,
          80.873,
          79.427,
          77.98,
          76.534,
          77.981,
          78.849,
          80.006,
          81.164,
          84.925,
          82.61,
          86.371,
          88.107,
          87.529,
          86.372,
          85.215,
          84.347,
          83.19,
          82.901,
          82.323,
          83.191,
          84.348,
          85.795,
          87.242,
          88.11,
          87.531,
          86.374,
          84.639,
          82.903,
          82.324,
          80.878,
          79.432,
          77.986,
          76.539,
          75.093,
          73.646,
          72.2,
          70.754,
          69.596,
          67.861,
          66.414,
          65.258,
          63.811,
          62.654,
          60.919,
          59.762,
          58.894,
          58.895,
          58.895,
          59.184,
          59.763,
          60.342,
          61.5,
          63.236,
          64.393,
          67.575,
          66.418,
          69.311,
          70.758,
          73.651,
          71.915,
          77.412,
          75.965,
          74.23,
          84.066,
          82.619,
          78.28,
          80.594,
          84.645,
          86.38,
          87.827,
          89.563,
          91.01,
          92.456,
          93.035,
          93.903,
          94.193,
          95.64,
          97.086,
          102.004,
          107.212,
          103.74,
          98.244,
          108.658,
          105.476,
          100.269,
          114.733,
          113.287,
          110.105,
          116.469,
          111.551,
          125.727,
          123.702,
          118.205,
          121.677,
          119.941,
          127.463,
          132.67,
          130.934,
          129.199,
          137.01,
          134.695,
          141.06,
          139.613,
          138.456,
          143.953,
          142.506,
          145.689,
          146.846,
          146.847,
          146.268,
          144.533,
          143.086,
          141.64,
          139.904,
          138.458,
          136.722,
          135.275,
          134.118,
          132.672,
          131.225,
          129.49,
          128.043,
          126.307,
          125.15,
          117.629,
          123.704,
          122.257,
          120.811,
          119.364,
          116.472,
          111.554,
          115.025,
          113.29,
          109.529,
          108.082,
          103.454,
          101.139,
          106.925,
          99.404,
          104.9,
          96.8,
          94.486,
          98.825,
          93.04,
          87.254,
          91.883,
          90.147,
          88.411,
          93.329,
          85.518,
          83.493,
          81.758,
          80.022,
          78.575,
          77.418,
          75.393,
          73.658,
          72.211,
          70.765,
          69.608,
          68.451,
          67.294,
          66.716,
          66.138,
          66.716,
          67.585,
          68.453,
          69.321,
          70.767,
          76.553,
          73.66,
          72.214,
          75.107,
          81.761,
          83.496,
          78.868,
          77.132,
          84.654,
          80.025,
          91.307,
          89.572,
          88.125,
          86.1,
          93.333,
          92.465,
          91.597,
          90.73,
          89.862,
          88.705,
          86.969,
          85.523,
          84.077,
          82.63,
          81.473,
          82.631,
          83.499,
          85.524,
          84.367,
          90.442,
          88.996,
          86.392,
          92.178,
          87.26,
          93.335,
          94.203,
          95.65,
          96.807,
          97.676,
          98.833,
          98.834,
          98.545,
          97.966,
          96.52,
          95.363,
          93.628,
          92.181,
          90.735,
          89.289,
          87.553,
          85.817,
          84.95,
          83.214,
          80.9,
          78.875,
          76.85,
          75.114,
          73.668,
          72.511,
          70.776,
          69.04,
          67.883,
          66.437,
          64.991,
          63.834,
          62.098,
          60.942,
          60.074,
          60.364,
          60.943,
          62.389,
          64.993,
          63.836,
          65.861,
          67.597,
          72.226,
          70.779,
          69.044,
          76.276,
          73.094,
          74.83,
          77.434,
          80.616,
          78.88,
          81.484,
          82.063,
          81.484,
          80.327,
          79.17,
          78.592,
          78.014,
          78.593,
          79.461,
          81.775,
          80.618,
          83.222,
          84.09,
          90.165,
          88.719,
          87.273,
          85.537,
          94.216,
          92.769,
          90.744,
          97.688,
          94.795,
          96.241,
          101.738,
          98.556,
          100.002,
          102.895,
          109.26,
          104.342,
          112.731,
          107.814,
          111.285,
          105.789,
          116.782,
          113.6,
          118.518,
          115.046,
          121.989,
          119.964,
          125.461,
          123.725,
          126.908,
          122.279,
          130.379,
          128.644,
          127.486,
          135.008,
          136.744,
          132.983,
          131.247,
          138.769,
          144.266,
          142.819,
          141.373,
          139.637,
          148.027,
          146.291,
          145.134,
          154.681,
          149.763,
          152.945,
          151.209,
          158.442,
          156.706,
          155.26,
          160.756,
          174.643,
          172.907,
          165.674,
          171.46,
          170.014,
          167.7,
          164.228,
          163.071,
          161.624,
          181.875,
          180.139,
          176.089,
          183.9,
          178.114,
          186.504,
          185.058,
          188.24,
          189.397,
          190.844,
          192.001,
          189.687,
          188.53,
          185.348,
          183.902,
          187.373,
          182.455,
          180.72,
          178.984,
          177.538,
          176.381,
          174.934,
          173.198,
          171.173,
          166.255,
          165.098,
          163.362,
          162.205,
          169.438,
          167.702,
          161.048,
          160.47,
          154.684,
          159.023,
          157.288,
          156.13,
          153.237,
          152.08,
          150.634,
          150.055,
          147.452,
          145.716,
          144.27,
          142.823,
          139.641,
          141.087,
          137.905,
          136.748,
          135.012,
          133.566,
          132.12,
          130.384,
          128.359,
          126.913,
          125.177,
          123.152,
          121.127,
          116.498,
          114.762,
          119.391,
          117.945,
          112.448,
          110.423,
          108.977,
          108.109,
          106.952,
          105.216,
          103.48,
          102.034,
          103.191,
          100.298,
          98.563,
          96.828,
          97.117,
          97.407,
          98.275,
          98.854,
          100.011,
          101.458,
          102.615,
          103.772,
          105.219,
          106.666,
          113.898,
          112.162,
          110.427,
          108.112,
          118.238,
          116.213,
          114.766,
          120.263,
          118.817,
          122.288,
          123.445,
          124.892,
          126.628,
          128.074,
          129.81,
          129.811,
          128.943,
          127.787,
          126.919,
          128.076,
          129.812,
          131.259,
          132.706,
          134.152,
          134.153,
          132.417,
          130.971,
          129.525,
          128.079,
          128.658,
          129.526,
          143.701,
          145.437,
          142.255,
          140.519,
          139.072,
          137.626,
          135.89,
          134.733,
          133.576,
          132.419,
          130.972,
          146.884,
          146.884,
          147.463,
          146.595,
          145.149,
          144.281,
          143.124,
          141.967,
          140.81,
          140.811,
          141.1,
          141.39,
          141.39,
          140.523,
          139.076,
          137.919,
          137.052,
          135.605,
          136.763,
          137.342,
          138.21,
          139.945,
          141.103,
          142.839,
          149.493,
          144.575,
          147.757,
          146.021,
          150.939,
          150.94,
          149.783,
          148.336,
          147.179,
          146.311,
          144.865,
          143.997,
          144.576,
          146.023,
          146.602,
          148.049,
          149.785,
          151.52,
          153.256,
          158.464,
          156.439,
          154.414,
          158.464,
          159.911,
          159.911,
          159.622,
          157.887,
          155.862,
          154.126,
          152.101,
          153.259,
          154.416,
          157.599,
          159.913,
          155.863,
          161.649,
          162.807,
          160.203,
          161.361,
          158.757,
          155.575,
          153.839,
          157.021,
          152.393,
          150.946,
          149.5,
          148.343,
          146.607,
          146.029,
          146.319,
          147.766,
          149.212,
          150.948,
          154.13,
          152.395,
          157.024,
          155.288,
          159.049,
          160.785,
          164.546,
          162.231,
          166.282,
          168.307,
          170.332,
          174.383,
          172.358,
          177.276,
          175.54,
          178.723,
          181.905,
          180.169,
          183.641,
          185.955,
          184.798,
          187.691,
          186.245,
          192.031,
          188.849,
          190.295,
          194.924,
          193.478,
          191.742,
          201.578,
          199.842,
          198.685,
          197.528,
          196.082,
          194.635,
          206.496,
          204.471,
          202.446,
          207.364,
          210.836,
          209.39,
          211.704,
          212.862,
          214.019,
          214.887,
          215.756,
          215.756,
          214.02,
          212.863,
          211.706,
          210.549,
          209.682,
          210.839,
          211.996,
          216.336,
          214.889,
          213.732,
          220.097,
          218.94,
          217.204,
          220.386,
          221.833,
          222.701,
          223.569,
          223.28,
          214.602,
          221.834,
          219.23,
          217.495,
          220.677,
          216.338,
          214.023,
          209.105,
          207.948,
          212.866,
          210.841,
          206.213,
          202.452,
          200.138,
          205.634,
          204.477,
          201.584,
          198.402,
          197.534,
          194.931,
          196.377,
          193.195,
          191.748,
          191.459,
          190.013,
          188.277,
          187.12,
          185.963,
          182.492,
          183.938,
          179.599,
          181.046,
          178.442,
          176.996,
          175.839,
          174.392,
          172.946,
          171.789,
          170.632,
          169.475,
          168.318,
          166.871,
          165.425,
          164.557,
          163.4
        ],
        [
          0.03588,
          0.036,
          0.04236,
          0.06132,
          0.0552,
          0.0678,
          0.09936,
          0.12468,
          0.1374,
          0.11856,
          0.09336,
          0.07464,
          0.0684,
          0.07476,
          0.08736,
          0.07488,
          0.09384,
          0.09396,
          0.09408,
          0.10668,
          0.1446,
          0.17616,
          0.16356,
          0.16368,
          0.1764,
          0.20796,
          0.2982,
          0.3954,
          0.35292,
          0.25584,
          0.43788,
          0.54708,
          0.46824,
          0.51072,
          0.61992,
          0.58356,
          0.85668,
          0.82632,
          0.79596,
          0.7596,
          0.73524,
          0.69888,
          0.6564,
          0.89304,
          0.9234,
          0.93564,
          0.92352,
          0.89928,
          0.86892,
          0.83256,
          0.79008,
          0.7476,
          0.70512,
          0.66876,
          0.6384,
          0.59592,
          0.55344,
          0.52308,
          0.49272,
          0.45636,
          0.41388,
          0.37752,
          0.34716,
          0.3108,
          0.28656,
          0.26232,
          0.25032,
          0.2322,
          0.23832,
          0.23232,
          0.22632,
          0.22032,
          0.21432,
          0.22044,
          0.20832,
          0.22056,
          0.22068,
          0.21468,
          0.2208,
          0.22692,
          0.23916,
          0.26952,
          0.306,
          0.33036,
          0.36072,
          0.37896,
          0.37908,
          0.34884,
          0.3246,
          0.28824,
          0.27,
          0.258,
          0.252,
          0.252,
          0.27636,
          0.30672,
          0.32496,
          0.3312,
          0.36756,
          0.42828,
          0.39804,
          0.45876,
          0.51936,
          0.48912,
          0.54984,
          0.5256,
          0.48912,
          0.45888,
          0.42852,
          0.40428,
          0.39216,
          0.4044,
          0.50148,
          0.47112,
          0.43476,
          0.53184,
          0.56832,
          0.53196,
          0.51372,
          0.50772,
          0.51996,
          0.53208,
          0.54432,
          0.56256,
          0.5808,
          0.61728,
          0.65364,
          0.68412,
          0.7266,
          0.81768,
          0.78732,
          0.75084,
          0.83592,
          0.85416,
          0.83592,
          0.81168,
          0.77532,
          0.73896,
          0.7086,
          0.68448,
          0.6966,
          0.72096,
          0.7392,
          0.77556,
          1.0123,
          0.98196,
          0.9576,
          0.87264,
          0.8424,
          0.81204,
          1.1579,
          1.1276,
          1.0973,
          1.0729,
          1.0427,
          0.93336,
          0.903,
          1.3339,
          1.3036,
          1.1822,
          1.2732,
          1.249,
          1.2186,
          1.4129,
          1.3885,
          1.3583,
          1.4432,
          1.5524,
          1.5161,
          1.4736,
          1.7102,
          1.6739,
          1.5889,
          1.7771,
          1.7467,
          1.6435,
          1.6193,
          1.8559,
          1.8074,
          1.8317,
          1.9106,
          1.8742,
          1.9289,
          1.9531,
          1.9592,
          1.8744,
          1.935,
          1.8986,
          1.844,
          1.7227,
          1.8198,
          1.7833,
          1.7531,
          1.6802,
          1.6499,
          1.6195,
          1.5832,
          1.5588,
          1.5224,
          1.4982,
          1.4738,
          1.4375,
          1.4132,
          1.3829,
          1.3586,
          1.3343,
          1.304,
          1.2433,
          1.207,
          1.2737,
          1.1705,
          1.1401,
          1.1038,
          1.0674,
          1.0309,
          1.0006,
          0.97632,
          0.93996,
          0.9096,
          0.87924,
          0.855,
          0.81864,
          0.78828,
          0.73368,
          0.75792,
          0.6972,
          0.66696,
          0.64272,
          0.65484,
          0.81876,
          0.7884,
          0.75804,
          0.69132,
          0.84912,
          0.72168,
          0.95232,
          0.92196,
          0.88548,
          1.0373,
          1.0676,
          1.013,
          1.0919,
          0.98268,
          1.2012,
          1.1647,
          1.1284,
          1.2194,
          1.2498,
          1.274,
          1.262,
          1.2377,
          1.2134,
          1.1831,
          1.1528,
          1.1285,
          1.1042,
          1.08,
          1.0558,
          1.0375,
          1.0012,
          0.9708,
          0.94044,
          0.91008,
          0.88584,
          0.85548,
          0.82512,
          0.813,
          0.84348,
          0.801,
          0.87984,
          1.0134,
          0.94668,
          0.9102,
          1.1166,
          1.0499,
          0.97704,
          1.1894,
          1.0862,
          1.1531,
          1.3594,
          1.3351,
          1.3048,
          1.2319,
          1.6688,
          1.6082,
          1.4747,
          1.4383,
          1.4018,
          1.2684,
          1.7114,
          1.6386,
          1.5718,
          1.5293,
          1.499,
          1.8631,
          1.7782,
          1.7478,
          1.8935,
          1.8085,
          2.0149,
          1.93,
          1.8389,
          2.1726,
          2.1424,
          2.0816,
          2.0513,
          1.9846,
          1.9542,
          2.3183,
          2.294,
          2.2273,
          2.197,
          2.112,
          2.2637,
          2.3365,
          3.0163,
          2.8828,
          2.816,
          2.7917,
          2.7553,
          2.7007,
          2.6704,
          2.6036,
          2.5733,
          2.5308,
          2.5066,
          2.4701,
          2.4276,
          2.3972,
          2.3669,
          2.9798,
          2.9495,
          2.9131,
          2.8464,
          2.7311,
          2.634,
          3.0467,
          3.1013,
          3.0649,
          3.0953,
          3.0772,
          3.0528,
          3.0164,
          2.9982,
          2.9678,
          2.9375,
          2.8769,
          2.9011,
          2.8465,
          2.8162,
          2.7616,
          2.7312,
          2.7008,
          2.6341,
          2.5978,
          2.7858,
          2.6645,
          2.5795,
          2.5492,
          2.5067,
          2.4703,
          2.434,
          2.3975,
          2.3671,
          2.2154,
          2.3369,
          2.3004,
          2.2519,
          2.1912,
          2.2762,
          2.1548,
          2.1366,
          2.1062,
          2.082,
          2.0578,
          2.0334,
          2.0092,
          1.9546,
          1.8392,
          1.9788,
          1.9242,
          1.8696,
          1.9,
          1.8089,
          1.7846,
          1.7604,
          1.7362,
          1.7058,
          1.6816,
          1.6452,
          1.5785,
          1.6148,
          1.5481,
          1.5178,
          1.4814,
          1.4449,
          1.4207,
          1.3903,
          1.36,
          1.3296,
          1.2629,
          1.2994,
          1.2265,
          1.1962,
          1.1658,
          1.1294,
          1.093,
          1.0687,
          1.0324,
          1.002,
          0.97164,
          0.93528,
          0.89892,
          0.87468,
          0.84432,
          0.80784,
          0.7776,
          0.75336,
          0.72912,
          0.717,
          0.87216,
          1.0264,
          1.1292,
          1.2834,
          1.4376,
          1.6432,
          1.7974,
          2.0028,
          2.157,
          2.4139,
          2.825,
          2.6195,
          3.082,
          3.3389,
          3.5958,
          3.8014,
          3.9041,
          4.0583,
          3.9042,
          3.7501,
          3.596,
          3.8015,
          4.007,
          4.2502,
          4.389,
          4.5278,
          4.7015,
          4.8056,
          4.8751,
          4.771,
          4.6321,
          4.4586,
          4.3198,
          4.1809,
          4.0768,
          3.9032,
          3.8339,
          3.695,
          3.6256,
          3.6604,
          3.7645,
          4.1117,
          3.9035,
          4.2853,
          5.1185,
          4.945,
          4.7713,
          4.5978,
          4.4588,
          5.3268,
          5.3963,
          5.431,
          5.5004,
          5.4311,
          5.3269,
          5.1533,
          4.9451,
          4.7714,
          4.6326,
          4.4244,
          4.2161,
          4.0772,
          4.0079,
          4.112,
          4.2856,
          4.598,
          4.4245,
          4.7717,
          4.9452,
          5.6395,
          5.1188,
          5.466,
          5.2925,
          6.195,
          5.9868,
          5.8132,
          7.2713,
          7.0976,
          6.8546,
          6.5075,
          6.2992,
          6.6811,
          7.8614,
          7.6531,
          7.4448,
          8.0003,
          8.3822,
          8.1739,
          8.9029,
          8.7294,
          8.4864,
          9.0766,
          9.4237,
          9.2501,
          9.5626,
          9.6667,
          9.875,
          10.049,
          10.118,
          10.014,
          9.8057,
          9.6668,
          9.4585,
          9.3197,
          9.0072,
          9.1808,
          8.8337,
          8.7295,
          8.5907,
          8.4518,
          8.313,
          8.209,
          8.1396,
          8.0006,
          8.1396,
          8.2784,
          8.4174,
          8.5909,
          8.7299,
          8.8687,
          8.9382,
          9.0077,
          9.0425,
          8.973,
          8.9036,
          8.2093,
          8.7648,
          8.5218,
          8.3483,
          8.0705,
          7.9316,
          7.8275,
          7.6886,
          7.5498,
          7.3763,
          7.2028,
          6.9944,
          6.8556,
          6.7168,
          6.5779,
          6.4391,
          6.3002,
          6.1961,
          6.0226,
          5.9531,
          5.849,
          5.7796,
          5.7797,
          5.8492,
          5.9533,
          6.0228,
          6.127,
          6.1964,
          6.3353,
          6.4394,
          6.5783,
          6.6826,
          6.7867,
          6.8562,
          6.9257,
          6.891,
          6.8563,
          6.7174,
          6.648,
          6.4745,
          6.3356,
          6.1967,
          6.0232,
          5.8843,
          5.7455,
          5.6066,
          5.4331,
          5.2943,
          5.1901,
          5.0513,
          4.9124,
          4.7736,
          4.6,
          4.5306,
          4.4611,
          4.3571,
          4.2529,
          4.1836,
          4.1489,
          4.01,
          3.8711,
          3.8712,
          3.8365,
          3.6977,
          3.6977,
          3.6977,
          3.7672,
          3.9061,
          4.0103,
          4.1491,
          4.288,
          4.4616,
          4.6352,
          4.8088,
          4.9824,
          5.2254,
          5.3642,
          5.7809,
          5.6072,
          6.0239,
          6.1975,
          6.6835,
          6.4058,
          7.0307,
          6.7877,
          7.3778,
          7.1696,
          7.5168,
          7.9333,
          7.725,
          8.107,
          8.3153,
          8.6624,
          8.4541,
          8.9401,
          8.6971,
          9.4609,
          9.2874,
          9.0791,
          9.8081,
          9.5651,
          10.121,
          9.947,
          10.259,
          10.364,
          10.503,
          10.641,
          10.711,
          10.676,
          10.641,
          10.641,
          10.537,
          10.711,
          10.815,
          10.989,
          12.169,
          11.162,
          11.961,
          11.718,
          11.544,
          11.336,
          12.273,
          12.898,
          12.725,
          12.447,
          13.245,
          13.037,
          13.627,
          13.488,
          13.801,
          13.731,
          13.523,
          13.35,
          13.176,
          12.968,
          12.794,
          12.551,
          12.343,
          12.169,
          11.996,
          11.753,
          11.579,
          11.406,
          11.232,
          11.058,
          10.92,
          10.677,
          10.503,
          10.33,
          10.156,
          9.9131,
          9.7048,
          9.5312,
          9.3576,
          9.1841,
          9.3577,
          9.4619,
          9.6007,
          9.7397,
          10.191,
          9.9132,
          10.365,
          10.573,
          10.503,
          10.365,
          10.226,
          10.122,
          9.9828,
          9.9481,
          9.8788,
          9.9829,
          10.122,
          10.295,
          10.469,
          10.573,
          10.504,
          10.365,
          10.157,
          9.9484,
          9.8789,
          9.7054,
          9.5318,
          9.3583,
          9.1847,
          9.0112,
          8.8375,
          8.664,
          8.4905,
          8.3515,
          8.1433,
          7.9697,
          7.831,
          7.6573,
          7.5185,
          7.3103,
          7.1714,
          7.0673,
          7.0674,
          7.0674,
          7.1021,
          7.1716,
          7.241,
          7.38,
          7.5883,
          7.7272,
          8.109,
          7.9702,
          8.3173,
          8.491,
          8.8381,
          8.6298,
          9.2894,
          9.1158,
          8.9076,
          10.088,
          9.9143,
          9.3936,
          9.6713,
          10.157,
          10.366,
          10.539,
          10.748,
          10.921,
          11.095,
          11.164,
          11.268,
          11.303,
          11.477,
          11.65,
          12.24,
          12.865,
          12.449,
          11.789,
          13.039,
          12.657,
          12.032,
          13.768,
          13.594,
          13.213,
          13.976,
          13.386,
          15.087,
          14.844,
          14.185,
          14.601,
          14.393,
          15.296,
          15.92,
          15.712,
          15.504,
          16.441,
          16.163,
          16.927,
          16.754,
          16.615,
          17.274,
          17.101,
          17.483,
          17.622,
          17.622,
          17.552,
          17.344,
          17.17,
          16.997,
          16.788,
          16.615,
          16.407,
          16.233,
          16.094,
          15.921,
          15.747,
          15.539,
          15.365,
          15.157,
          15.018,
          14.115,
          14.844,
          14.671,
          14.497,
          14.324,
          13.977,
          13.386,
          13.803,
          13.595,
          13.143,
          12.97,
          12.414,
          12.137,
          12.831,
          11.928,
          12.588,
          11.616,
          11.338,
          11.859,
          11.165,
          10.47,
          11.026,
          10.818,
          10.609,
          11.199,
          10.262,
          10.019,
          9.811,
          9.6026,
          9.429,
          9.2902,
          9.0472,
          8.839,
          8.6653,
          8.4918,
          8.353,
          8.2141,
          8.0753,
          8.0059,
          7.9366,
          8.0059,
          8.1102,
          8.2144,
          8.3185,
          8.492,
          9.1864,
          8.8392,
          8.6657,
          9.0128,
          9.8113,
          10.02,
          9.4642,
          9.2558,
          10.158,
          9.603,
          10.957,
          10.749,
          10.575,
          10.332,
          11.2,
          11.096,
          10.992,
          10.888,
          10.783,
          10.645,
          10.436,
          10.263,
          10.089,
          9.9156,
          9.7768,
          9.9157,
          10.02,
          10.263,
          10.124,
          10.853,
          10.68,
          10.367,
          11.061,
          10.471,
          11.2,
          11.304,
          11.478,
          11.617,
          11.721,
          11.86,
          11.86,
          11.825,
          11.756,
          11.582,
          11.444,
          11.235,
          11.062,
          10.888,
          10.715,
          10.506,
          10.298,
          10.194,
          9.9857,
          9.708,
          9.465,
          9.222,
          9.0137,
          8.8402,
          8.7013,
          8.4931,
          8.2848,
          8.146,
          7.9724,
          7.7989,
          7.6601,
          7.4518,
          7.313,
          7.2089,
          7.2437,
          7.3132,
          7.4867,
          7.7992,
          7.6603,
          7.9033,
          8.1116,
          8.6671,
          8.4935,
          8.2853,
          9.1531,
          8.7713,
          8.9796,
          9.2921,
          9.6739,
          9.4656,
          9.7781,
          9.8476,
          9.7781,
          9.6392,
          9.5004,
          9.431,
          9.3617,
          9.4312,
          9.5353,
          9.813,
          9.6742,
          9.9866,
          10.091,
          10.82,
          10.646,
          10.473,
          10.264,
          11.306,
          11.132,
          10.889,
          11.723,
          11.375,
          11.549,
          12.209,
          11.827,
          12.0,
          12.347,
          13.111,
          12.521,
          13.528,
          12.938,
          13.354,
          12.695,
          14.014,
          13.632,
          14.222,
          13.806,
          14.639,
          14.396,
          15.055,
          14.847,
          15.229,
          14.673,
          15.645,
          15.437,
          15.298,
          16.201,
          16.409,
          15.958,
          15.75,
          16.652,
          17.312,
          17.138,
          16.965,
          16.756,
          17.763,
          17.555,
          17.416,
          18.562,
          17.972,
          18.353,
          18.145,
          19.013,
          18.805,
          18.631,
          19.291,
          20.957,
          20.749,
          19.881,
          20.575,
          20.402,
          20.124,
          19.707,
          19.569,
          19.395,
          21.825,
          21.617,
          21.131,
          22.068,
          21.374,
          22.38,
          22.207,
          22.589,
          22.728,
          22.901,
          23.04,
          22.762,
          22.624,
          22.242,
          22.068,
          22.485,
          21.895,
          21.686,
          21.478,
          21.305,
          21.166,
          20.992,
          20.784,
          20.541,
          19.951,
          19.812,
          19.603,
          19.465,
          20.333,
          20.124,
          19.326,
          19.256,
          18.562,
          19.083,
          18.875,
          18.736,
          18.388,
          18.25,
          18.076,
          18.007,
          17.694,
          17.486,
          17.312,
          17.139,
          16.757,
          16.93,
          16.549,
          16.41,
          16.201,
          16.028,
          15.854,
          15.646,
          15.403,
          15.23,
          15.021,
          14.778,
          14.535,
          13.98,
          13.771,
          14.327,
          14.153,
          13.494,
          13.251,
          13.077,
          12.973,
          12.834,
          12.626,
          12.418,
          12.244,
          12.383,
          12.036,
          11.828,
          11.619,
          11.654,
          11.689,
          11.793,
          11.862,
          12.001,
          12.175,
          12.314,
          12.453,
          12.626,
          12.8,
          13.668,
          13.459,
          13.251,
          12.973,
          14.189,
          13.946,
          13.772,
          14.432,
          14.258,
          14.675,
          14.813,
          14.987,
          15.195,
          15.369,
          15.577,
          15.577,
          15.473,
          15.334,
          15.23,
          15.369,
          15.577,
          15.751,
          15.925,
          16.098,
          16.098,
          15.89,
          15.717,
          15.543,
          15.369,
          15.439,
          15.543,
          17.244,
          17.452,
          17.071,
          16.862,
          16.689,
          16.515,
          16.307,
          16.168,
          16.029,
          15.89,
          15.717,
          17.626,
          17.626,
          17.696,
          17.591,
          17.418,
          17.314,
          17.175,
          17.036,
          16.897,
          16.897,
          16.932,
          16.967,
          16.967,
          16.863,
          16.689,
          16.55,
          16.446,
          16.273,
          16.412,
          16.481,
          16.585,
          16.793,
          16.932,
          17.141,
          17.939,
          17.349,
          17.731,
          17.523,
          18.113,
          18.113,
          17.974,
          17.8,
          17.661,
          17.557,
          17.384,
          17.28,
          17.349,
          17.523,
          17.592,
          17.766,
          17.974,
          18.182,
          18.391,
          19.016,
          18.773,
          18.53,
          19.016,
          19.189,
          19.189,
          19.155,
          18.946,
          18.703,
          18.495,
          18.252,
          18.391,
          18.53,
          18.912,
          19.19,
          18.704,
          19.398,
          19.537,
          19.224,
          19.363,
          19.051,
          18.669,
          18.461,
          18.843,
          18.287,
          18.114,
          17.94,
          17.801,
          17.593,
          17.523,
          17.558,
          17.732,
          17.905,
          18.114,
          18.496,
          18.287,
          18.843,
          18.635,
          19.086,
          19.294,
          19.746,
          19.468,
          19.954,
          20.197,
          20.44,
          20.926,
          20.683,
          21.273,
          21.065,
          21.447,
          21.829,
          21.62,
          22.037,
          22.315,
          22.176,
          22.523,
          22.349,
          23.044,
          22.662,
          22.835,
          23.391,
          23.217,
          23.009,
          24.189,
          23.981,
          23.842,
          23.703,
          23.53,
          23.356,
          24.78,
          24.537,
          24.294,
          24.884,
          25.3,
          25.127,
          25.404,
          25.543,
          25.682,
          25.786,
          25.891,
          25.891,
          25.682,
          25.544,
          25.405,
          25.266,
          25.162,
          25.301,
          25.44,
          25.96,
          25.787,
          25.648,
          26.412,
          26.273,
          26.064,
          26.446,
          26.62,
          26.724,
          26.828,
          26.794,
          25.752,
          26.62,
          26.308,
          26.099,
          26.481,
          25.961,
          25.683,
          25.093,
          24.954,
          25.544,
          25.301,
          24.746,
          24.294,
          24.017,
          24.676,
          24.537,
          24.19,
          23.808,
          23.704,
          23.392,
          23.565,
          23.183,
          23.01,
          22.975,
          22.802,
          22.593,
          22.454,
          22.316,
          21.899,
          22.073,
          21.552,
          21.726,
          21.413,
          21.24,
          21.101,
          20.927,
          20.754,
          20.615,
          20.476,
          20.337,
          20.198,
          20.025,
          19.851,
          19.747,
          19.608
        ]
      ]
    }
  },
  "C0515-003": {
    "reaction": {
      "0": {
        "x4_code": "(10-NE-22(A,N)12-MG-25,,SIG)",
        "0": {
          "code": [
            "10-NE-22",
            [
              "A,N"
            ],
            "12-MG-25,,SIG"
          ],
          "type": null,
          "target": "10-NE-22",
          "process": "A,N",
          "sf49": "12-MG-25,,SIG",
          "sf4": "12-MG-25",
          "sf5": null,
          "sf6": "SIG",
          "sf7": null,
          "sf8": null,
          "sf9": null
        },
        "type": null,
        "free_text": ""
      }
    },
    "extra_information": {
      "err-analys": {
        "0": [
          {
            "x4_code": "(DATA-ERR)",
            "free_txt": [
              " Exclusive of the detector efficiency",
              "correction, the error in the  cross sections is 12%",
              "for energies above about 1.7 MeV."
            ]
          }
        ]
      },
      "monitor": {
        "0": [
          {
            "x4_code": "(10-NE-22(A,N)12-MG-25,,SIG)",
            "free_txt": [
              " Absolute scale determined",
              "from measurements at 3-4 MeV on a gas target highly",
              "enriched in 22Ne."
            ]
          }
        ]
      },
      "sample": {
        "0": [
          {
            "x4_code": null,
            "free_txt": [
              "\"Drive-in\" target made by bombarding a tantalum blank",
              "with 25-keV 22Ne ions."
            ]
          }
        ]
      },
      "status": {
        "0": [
          {
            "x4_code": "(CURVE)",
            "free_txt": [
              " Fig. 6, page 44 of the ORNL report, or Fig. 2",
              "page 2433 in PR/C,7,2432,1973. Smooth curve."
            ]
          }
        ]
      }
    },
    "common": null,
    "data": {
      "heads": [
        "EN",
        "DATA",
        "DATA-ERR"
      ],
      "units": [
        "MEV",
        "MB",
        "MB"
      ],
      "data": [
        [
          1.787,
          1.812,
          1.833,
          1.841,
          1.851,
          1.866,
          1.878,
          1.889,
          1.903,
          1.915,
          1.926,
          1.94,
          1.95,
          1.961,
          1.973,
          1.986,
          1.994,
          2.002,
          2.015,
          2.021,
          2.027,
          2.031,
          2.033,
          2.035,
          2.041,
          2.048,
          2.054,
          2.062,
          2.068,
          2.072,
          2.079,
          2.089,
          2.099,
          2.107,
          2.118,
          2.13,
          2.141,
          2.147,
          2.157,
          2.165,
          2.176,
          2.186,
          2.194,
          2.203,
          2.215,
          2.225,
          2.234,
          2.244,
          2.252,
          2.262,
          2.273,
          2.277,
          2.283,
          2.293,
          2.302,
          2.31,
          2.318,
          2.331,
          2.339,
          2.347,
          2.355,
          2.364,
          2.374,
          2.384,
          2.391,
          2.401,
          2.411,
          2.417,
          2.426,
          2.436,
          2.438,
          2.44,
          2.446,
          2.455,
          2.463,
          2.469,
          2.489,
          2.496,
          2.505,
          2.516,
          2.525,
          2.536,
          2.545,
          2.554,
          2.565,
          2.572,
          2.576,
          2.585,
          2.594,
          2.603,
          2.613,
          2.618,
          2.625,
          2.629,
          2.636,
          2.643,
          2.651,
          2.658,
          2.665,
          2.674,
          2.682,
          2.689,
          2.695,
          2.702,
          2.709,
          2.715,
          2.722,
          2.729,
          2.736,
          2.744,
          2.751,
          2.755,
          2.76,
          2.766,
          2.773,
          2.782,
          2.793,
          2.804,
          2.815,
          2.824,
          2.835,
          2.839,
          2.842,
          2.844,
          2.846,
          2.848,
          2.849,
          2.857,
          2.866,
          2.873,
          2.879,
          2.886,
          2.893,
          2.9,
          2.908,
          2.915,
          2.924,
          2.931,
          2.941,
          2.95,
          2.959,
          2.964,
          2.968,
          2.968,
          2.97,
          2.97,
          2.97,
          2.973,
          2.973,
          2.979,
          2.988,
          2.988,
          2.99,
          2.99,
          2.993,
          2.997,
          3.004,
          3.012,
          3.015,
          3.017,
          3.022,
          3.028,
          3.033,
          3.035,
          3.039,
          3.043,
          3.046,
          3.052,
          3.061,
          3.061,
          3.063,
          3.063,
          3.063,
          3.064,
          3.064,
          3.064,
          3.07,
          3.073,
          3.079,
          3.083,
          3.084,
          3.084,
          3.088,
          3.092,
          3.097,
          3.101,
          3.106,
          3.114,
          3.121,
          3.128,
          3.136,
          3.141,
          3.15,
          3.157,
          3.167,
          3.174,
          3.181,
          3.187,
          3.188,
          3.194,
          3.197,
          3.197,
          3.199,
          3.201,
          3.203,
          3.21,
          3.216,
          3.217,
          3.219,
          3.221,
          3.221,
          3.228,
          3.234,
          3.241,
          3.25,
          3.259,
          3.267,
          3.276,
          3.287,
          3.292,
          3.298,
          3.305,
          3.314,
          3.325,
          3.334,
          3.343,
          3.352,
          3.363,
          3.371,
          3.38,
          3.385,
          3.391,
          3.394,
          3.398,
          3.401,
          3.403,
          3.403,
          3.405,
          3.405,
          3.407,
          3.41,
          3.414,
          3.42,
          3.425,
          3.429,
          3.432,
          3.436,
          3.438,
          3.442,
          3.449,
          3.452,
          3.458,
          3.462,
          3.473,
          3.483,
          3.491,
          3.498,
          3.504,
          3.511,
          3.516,
          3.52,
          3.525,
          3.533,
          3.533,
          3.538,
          3.543,
          3.547,
          3.547,
          3.551,
          3.556,
          3.563,
          3.571,
          3.578,
          3.585,
          3.589,
          3.593,
          3.594,
          3.598,
          3.602,
          3.603,
          3.605,
          3.612,
          3.62,
          3.623,
          3.625,
          3.627,
          3.627,
          3.633,
          3.64,
          3.645,
          3.647,
          3.649,
          3.649,
          3.649,
          3.649,
          3.652,
          3.652,
          3.652,
          3.653,
          3.654,
          3.656,
          3.656,
          3.658,
          3.658,
          3.658,
          3.658,
          3.658,
          3.66,
          3.66,
          3.66,
          3.663,
          3.67,
          3.674,
          3.68,
          3.68,
          3.68,
          3.68,
          3.683,
          3.683,
          3.685,
          3.687,
          3.689,
          3.693,
          3.698,
          3.703,
          3.709,
          3.711,
          3.711,
          3.714,
          3.718,
          3.718,
          3.722,
          3.724,
          3.726,
          3.727,
          3.727,
          3.727,
          3.731,
          3.733,
          3.737,
          3.737,
          3.742,
          3.742,
          3.746,
          3.755,
          3.766,
          3.777,
          3.788,
          3.797,
          3.806,
          3.811,
          3.815,
          3.819,
          3.822,
          3.826,
          3.828,
          3.828,
          3.829,
          3.833,
          3.835,
          3.838,
          3.84,
          3.842,
          3.842,
          3.842,
          3.846,
          3.848,
          3.849,
          3.853,
          3.855,
          3.855,
          3.858,
          3.858,
          3.858,
          3.86,
          3.862,
          3.869,
          3.873,
          3.875,
          3.877,
          3.878,
          3.88,
          3.884,
          3.884,
          3.888,
          3.889,
          3.891,
          3.893,
          3.897,
          3.9,
          3.9,
          3.9,
          3.906,
          3.908,
          3.911,
          3.919,
          3.926,
          3.93,
          3.933,
          3.933,
          3.933,
          3.933,
          3.935,
          3.937,
          3.937,
          3.937,
          3.937,
          3.937,
          3.937,
          3.937,
          3.937,
          3.937,
          3.937,
          3.944,
          3.955,
          3.955,
          3.955,
          3.959,
          3.959,
          3.96,
          3.96,
          3.962,
          3.966,
          3.966,
          3.968,
          3.97,
          3.97,
          3.979,
          3.982,
          3.986,
          3.99,
          3.992,
          3.995,
          3.997,
          4.001,
          4.006,
          4.015,
          4.019,
          4.021,
          4.028,
          4.035,
          4.043,
          4.046,
          4.052,
          4.055,
          4.057,
          4.066,
          4.07,
          4.07,
          4.07,
          4.07,
          4.074,
          4.074,
          4.077,
          4.081,
          4.088,
          4.094,
          4.105,
          4.112,
          4.114,
          4.117,
          4.117,
          4.119,
          4.119,
          4.119,
          4.119,
          4.121,
          4.121,
          4.123,
          4.123,
          4.125,
          4.125,
          4.125,
          4.125,
          4.126,
          4.126,
          4.128,
          4.129,
          4.129,
          4.13,
          4.13,
          4.13,
          4.131,
          4.131,
          4.131,
          4.131,
          4.131,
          4.131,
          4.131,
          4.131,
          4.131,
          4.131,
          4.132,
          4.132,
          4.132,
          4.132,
          4.132,
          4.132,
          4.132,
          4.133,
          4.135,
          4.139,
          4.142,
          4.146,
          4.146,
          4.148,
          4.148,
          4.15,
          4.15,
          4.15,
          4.151,
          4.151,
          4.152,
          4.153,
          4.155,
          4.157,
          4.157,
          4.159,
          4.161,
          4.163,
          4.168,
          4.173,
          4.181,
          4.181,
          4.182,
          4.183,
          4.183,
          4.184,
          4.184,
          4.184,
          4.184,
          4.184,
          4.184,
          4.186,
          4.186,
          4.186,
          4.186,
          4.186,
          4.186,
          4.186,
          4.188,
          4.188,
          4.188,
          4.188,
          4.188,
          4.188,
          4.188,
          4.188,
          4.188,
          4.188,
          4.189,
          4.191,
          4.191,
          4.191,
          4.193,
          4.193,
          4.195,
          4.197,
          4.204,
          4.207,
          4.213,
          4.215,
          4.218,
          4.218,
          4.22,
          4.22,
          4.22,
          4.222,
          4.222,
          4.222,
          4.222,
          4.222,
          4.224,
          4.226,
          4.226,
          4.226,
          4.226,
          4.226,
          4.228,
          4.23,
          4.23,
          4.23,
          4.23,
          4.23,
          4.23,
          4.235,
          4.237,
          4.239,
          4.239,
          4.239,
          4.245,
          4.245,
          4.248,
          4.248,
          4.252,
          4.252,
          4.256,
          4.256,
          4.263,
          4.268,
          4.274,
          4.281,
          4.287,
          4.294,
          4.303,
          4.307,
          4.309,
          4.314,
          4.321,
          4.323,
          4.325,
          4.325,
          4.325,
          4.325,
          4.325,
          4.327,
          4.327,
          4.327,
          4.33,
          4.33,
          4.336,
          4.343,
          4.345,
          4.348,
          4.352,
          4.354,
          4.359,
          4.365,
          4.365,
          4.367,
          4.367,
          4.367,
          4.368,
          4.368,
          4.368,
          4.368,
          4.37,
          4.37,
          4.374,
          4.374,
          4.376,
          4.376,
          4.379,
          4.379,
          4.379,
          4.381,
          4.384,
          4.384,
          4.384,
          4.385,
          4.385,
          4.385,
          4.386,
          4.39,
          4.392,
          4.399,
          4.404,
          4.404,
          4.406,
          4.406,
          4.408,
          4.41,
          4.414,
          4.419,
          4.423,
          4.425,
          4.426,
          4.426,
          4.426,
          4.428,
          4.432,
          4.434,
          4.434,
          4.434,
          4.435,
          4.437,
          4.441,
          4.446,
          4.454,
          4.463,
          4.47,
          4.475,
          4.477,
          4.479,
          4.479,
          4.479,
          4.483,
          4.483,
          4.484,
          4.484,
          4.486,
          4.49,
          4.49,
          4.495,
          4.499,
          4.503,
          4.503,
          4.506,
          4.51,
          4.512,
          4.512,
          4.515,
          4.519,
          4.525,
          4.535,
          4.543,
          4.548,
          4.552,
          4.556,
          4.556,
          4.557,
          4.557,
          4.557,
          4.559,
          4.561,
          4.561,
          4.561,
          4.563,
          4.565,
          4.565,
          4.569,
          4.58,
          4.583,
          4.589,
          4.592,
          4.598,
          4.6,
          4.6,
          4.6,
          4.601,
          4.603,
          4.603,
          4.605,
          4.607,
          4.609,
          4.613,
          4.618,
          4.618,
          4.622,
          4.629,
          4.633,
          4.636,
          4.636,
          4.638,
          4.638,
          4.638,
          4.638,
          4.638,
          4.638,
          4.638,
          4.638,
          4.638,
          4.64,
          4.64,
          4.641,
          4.645,
          4.649,
          4.656,
          4.658,
          4.66,
          4.66,
          4.66,
          4.665,
          4.673,
          4.674,
          4.674,
          4.676,
          4.676,
          4.68,
          4.68,
          4.685,
          4.687,
          4.687,
          4.689,
          4.696,
          4.696,
          4.701,
          4.707,
          4.711,
          4.716,
          4.723,
          4.731,
          4.736,
          4.74,
          4.742,
          4.743,
          4.743,
          4.747,
          4.749,
          4.751,
          4.751,
          4.751,
          4.754,
          4.758,
          4.76,
          4.76,
          4.762,
          4.765,
          4.766,
          4.767,
          4.769,
          4.773,
          4.773,
          4.775,
          4.777,
          4.778,
          4.782,
          4.784,
          4.784,
          4.786,
          4.789,
          4.793,
          4.793,
          4.799,
          4.802,
          4.808,
          4.808,
          4.811,
          4.817,
          4.817,
          4.817,
          4.819,
          4.819,
          4.82,
          4.82,
          4.82,
          4.82,
          4.82,
          4.82,
          4.82,
          4.822,
          4.822,
          4.824,
          4.824,
          4.826,
          4.826,
          4.827,
          4.829,
          4.829,
          4.829,
          4.835,
          4.835,
          4.836,
          4.836,
          4.836,
          4.836,
          4.836,
          4.838,
          4.842,
          4.845,
          4.851,
          4.856,
          4.862,
          4.866,
          4.869,
          4.871,
          4.873,
          4.873,
          4.873,
          4.875,
          4.875,
          4.878,
          4.878,
          4.882,
          4.882,
          4.884,
          4.888,
          4.889,
          4.893,
          4.893,
          4.897,
          4.897,
          4.904,
          4.917,
          4.922,
          4.926,
          4.926,
          4.93,
          4.93,
          4.93,
          4.933,
          4.935,
          4.935,
          4.935,
          4.937,
          4.937,
          4.937,
          4.937,
          4.938,
          4.939,
          4.94,
          4.942,
          4.942,
          4.942,
          4.942,
          4.946,
          4.946,
          4.946,
          4.946,
          4.947,
          4.947,
          4.947,
          4.949,
          4.951,
          4.956,
          4.962,
          4.971,
          4.975,
          4.976,
          4.978,
          4.982,
          4.982,
          4.986,
          4.986,
          4.989,
          4.991,
          4.993,
          4.995,
          4.997,
          4.999,
          4.999,
          5.0,
          5.002,
          5.008,
          5.011,
          5.017,
          5.022,
          5.022,
          5.024,
          5.024,
          5.024,
          5.024,
          5.026,
          5.026,
          5.028,
          5.028,
          5.033,
          5.038,
          5.046,
          5.048,
          5.049,
          5.053,
          5.053,
          5.053,
          5.057,
          5.059,
          5.059,
          5.061,
          5.064,
          5.064,
          5.066,
          5.066,
          5.072,
          5.072,
          5.073,
          5.077,
          5.079,
          5.083,
          5.084,
          5.09,
          5.09,
          5.094,
          5.095,
          5.099,
          5.105,
          5.108,
          5.116,
          5.123,
          5.127,
          5.128
        ],
        [
          0.172,
          0.172,
          0.172,
          0.216,
          0.26,
          0.26,
          0.304,
          0.304,
          0.348,
          0.392,
          0.436,
          0.48,
          0.656,
          0.7,
          0.7,
          0.7,
          0.744,
          0.832,
          0.92,
          1.053,
          1.229,
          1.361,
          1.581,
          1.801,
          1.933,
          1.933,
          1.801,
          1.625,
          1.405,
          1.229,
          1.009,
          0.876,
          0.744,
          0.612,
          0.524,
          0.48,
          0.568,
          0.7,
          0.612,
          0.436,
          0.392,
          0.392,
          0.524,
          0.7,
          0.832,
          0.92,
          1.009,
          1.009,
          1.097,
          1.141,
          1.229,
          1.361,
          1.537,
          1.537,
          1.449,
          1.317,
          1.185,
          1.141,
          1.317,
          1.361,
          1.361,
          1.361,
          1.449,
          1.493,
          1.625,
          1.669,
          1.757,
          1.801,
          1.757,
          1.845,
          2.021,
          2.329,
          2.462,
          2.373,
          2.197,
          2.065,
          3.201,
          4.378,
          3.598,
          3.994,
          4.781,
          5.176,
          5.571,
          5.575,
          5.579,
          7.148,
          5.583,
          5.978,
          5.59,
          5.201,
          5.205,
          6.382,
          7.559,
          9.518,
          11.087,
          12.656,
          13.833,
          13.445,
          14.23,
          14.234,
          13.845,
          12.281,
          11.109,
          9.937,
          8.765,
          7.201,
          6.029,
          6.031,
          6.034,
          6.037,
          7.214,
          8.782,
          9.959,
          8.394,
          7.614,
          6.834,
          6.447,
          6.059,
          6.063,
          6.067,
          6.463,
          8.422,
          9.989,
          11.948,
          13.515,
          15.473,
          17.823,
          19.392,
          20.179,
          19.007,
          17.051,
          15.487,
          14.315,
          12.752,
          11.58,
          10.8,
          10.02,
          8.848,
          8.851,
          9.246,
          10.424,
          11.993,
          20.217,
          13.952,
          22.175,
          18.26,
          16.302,
          25.701,
          23.743,
          27.269,
          27.272,
          25.314,
          23.749,
          21.791,
          19.443,
          17.487,
          15.923,
          15.926,
          17.885,
          20.235,
          22.586,
          21.805,
          21.024,
          19.459,
          17.111,
          14.763,
          12.806,
          12.025,
          22.992,
          13.203,
          26.517,
          24.559,
          21.427,
          19.47,
          17.12,
          15.163,
          25.737,
          24.563,
          22.999,
          21.043,
          19.477,
          17.128,
          15.171,
          13.998,
          12.434,
          10.869,
          8.913,
          7.35,
          6.178,
          5.397,
          5.009,
          5.402,
          4.623,
          5.017,
          5.02,
          6.198,
          7.767,
          9.726,
          11.685,
          13.253,
          17.562,
          15.212,
          19.52,
          22.262,
          24.612,
          24.223,
          23.05,
          21.093,
          18.744,
          16.787,
          14.438,
          12.874,
          11.31,
          9.747,
          9.359,
          9.362,
          9.365,
          9.368,
          9.764,
          11.332,
          12.9,
          14.469,
          15.256,
          16.043,
          16.046,
          16.833,
          16.836,
          17.232,
          17.626,
          18.804,
          19.981,
          21.549,
          23.117,
          25.468,
          27.818,
          32.126,
          29.777,
          36.825,
          34.476,
          39.175,
          41.135,
          43.877,
          43.096,
          41.14,
          38.401,
          36.053,
          33.313,
          31.747,
          29.4,
          28.228,
          26.271,
          24.315,
          22.359,
          21.58,
          21.976,
          22.761,
          23.547,
          24.724,
          25.51,
          26.687,
          28.646,
          30.214,
          34.524,
          32.174,
          36.875,
          38.835,
          43.927,
          41.186,
          45.886,
          47.846,
          49.023,
          49.809,
          51.378,
          53.338,
          55.689,
          58.04,
          60.781,
          62.74,
          65.091,
          68.224,
          70.183,
          70.185,
          69.797,
          67.84,
          65.883,
          63.143,
          61.185,
          60.404,
          61.581,
          63.15,
          65.5,
          74.115,
          71.765,
          69.416,
          67.458,
          83.122,
          80.772,
          78.815,
          76.465,
          86.255,
          90.171,
          87.822,
          100.352,
          98.003,
          96.045,
          94.087,
          92.13,
          107.401,
          105.052,
          102.311,
          109.36,
          110.537,
          108.581,
          106.625,
          104.276,
          102.71,
          101.144,
          98.796,
          96.446,
          91.748,
          94.881,
          89.4,
          87.052,
          85.488,
          84.315,
          82.751,
          80.403,
          78.053,
          76.097,
          73.357,
          70.616,
          68.268,
          66.311,
          63.963,
          61.614,
          59.265,
          57.307,
          55.35,
          52.61,
          50.654,
          48.305,
          46.349,
          43.216,
          41.26,
          39.697,
          38.526,
          38.531,
          39.318,
          40.496,
          42.065,
          43.634,
          45.593,
          46.769,
          48.728,
          50.296,
          54.995,
          52.646,
          56.953,
          59.304,
          61.654,
          63.613,
          65.963,
          72.229,
          70.271,
          67.922,
          75.754,
          73.797,
          77.713,
          80.847,
          82.806,
          79.282,
          90.247,
          88.68,
          84.765,
          86.723,
          92.206,
          91.817,
          91.035,
          89.47,
          87.513,
          85.947,
          84.381,
          82.425,
          80.467,
          78.119,
          75.771,
          73.814,
          72.248,
          69.9,
          67.552,
          65.203,
          62.853,
          60.506,
          58.549,
          56.201,
          55.029,
          55.423,
          57.774,
          67.173,
          64.823,
          62.474,
          60.908,
          69.523,
          91.059,
          89.101,
          86.752,
          84.403,
          82.445,
          80.487,
          78.529,
          76.18,
          73.831,
          71.873,
          91.062,
          89.891,
          87.542,
          85.584,
          83.628,
          76.58,
          81.279,
          79.321,
          74.623,
          72.667,
          70.317,
          68.36,
          66.012,
          63.271,
          61.708,
          59.752,
          57.795,
          56.23,
          53.882,
          52.317,
          50.36,
          48.403,
          46.447,
          45.276,
          46.844,
          48.802,
          49.197,
          50.374,
          51.16,
          52.336,
          53.513,
          55.08,
          57.039,
          58.217,
          56.26,
          54.302,
          51.562,
          49.212,
          48.039,
          45.298,
          42.558,
          39.819,
          38.255,
          37.474,
          37.87,
          39.83,
          41.789,
          49.23,
          42.965,
          56.279,
          51.971,
          46.881,
          44.923,
          58.629,
          54.321,
          62.936,
          60.587,
          71.943,
          69.985,
          68.027,
          65.286,
          76.642,
          74.293,
          78.992,
          133.028,
          131.07,
          86.433,
          83.692,
          81.342,
          129.113,
          127.155,
          125.197,
          123.631,
          121.282,
          118.932,
          116.975,
          114.625,
          112.668,
          110.71,
          107.577,
          105.228,
          102.487,
          99.746,
          97.397,
          94.264,
          88.783,
          91.524,
          134.596,
          134.206,
          133.424,
          131.859,
          129.901,
          128.336,
          124.029,
          126.379,
          121.68,
          119.722,
          117.765,
          115.807,
          113.85,
          112.676,
          108.369,
          110.328,
          103.671,
          106.021,
          101.323,
          99.758,
          97.802,
          98.979,
          103.289,
          100.939,
          111.903,
          107.596,
          105.639,
          129.916,
          127.566,
          118.169,
          116.603,
          114.253,
          109.555,
          137.748,
          135.79,
          133.44,
          131.874,
          125.218,
          122.868,
          120.519,
          162.416,
          159.675,
          156.543,
          153.802,
          151.844,
          149.495,
          147.146,
          144.796,
          142.838,
          140.098,
          166.333,
          172.207,
          170.249,
          168.291,
          174.557,
          164.376,
          176.123,
          177.299,
          178.476,
          180.044,
          178.088,
          176.131,
          172.217,
          169.867,
          174.175,
          167.519,
          162.82,
          164.779,
          159.688,
          156.947,
          154.207,
          151.857,
          149.117,
          146.768,
          144.027,
          142.07,
          140.112,
          136.979,
          134.631,
          131.499,
          128.758,
          126.017,
          123.276,
          120.535,
          118.186,
          115.447,
          112.315,
          109.575,
          106.443,
          103.702,
          102.138,
          99.397,
          97.44,
          94.699,
          91.568,
          89.611,
          88.046,
          85.696,
          84.133,
          81.786,
          81.396,
          80.616,
          82.184,
          82.97,
          81.799,
          81.017,
          79.06,
          77.104,
          77.89,
          79.457,
          91.987,
          90.029,
          88.072,
          86.114,
          81.024,
          93.554,
          84.157,
          82.59,
          98.254,
          95.513,
          99.039,
          100.217,
          99.043,
          97.869,
          95.913,
          93.956,
          94.741,
          101.791,
          95.918,
          105.316,
          99.051,
          97.093,
          114.714,
          112.364,
          110.015,
          108.057,
          119.022,
          116.672,
          128.42,
          121.372,
          126.072,
          123.722,
          139.386,
          135.47,
          132.729,
          129.989,
          151.918,
          149.568,
          147.611,
          144.87,
          142.52,
          140.563,
          154.659,
          157.402,
          160.143,
          160.929,
          159.365,
          154.275,
          156.625,
          151.534,
          149.186,
          146.837,
          144.881,
          143.316,
          145.276,
          147.234,
          153.5,
          151.15,
          149.193,
          155.067,
          157.809,
          167.598,
          164.466,
          162.508,
          160.551,
          169.949,
          171.908,
          173.085,
          173.871,
          175.049,
          177.009,
          178.578,
          185.626,
          187.585,
          182.886,
          180.537,
          193.851,
          189.544,
          195.81,
          191.894,
          197.376,
          201.685,
          198.944,
          200.512,
          197.773,
          196.208,
          194.25,
          191.511,
          188.771,
          187.206,
          185.248,
          182.9,
          180.943,
          178.596,
          177.817,
          175.862,
          173.906,
          171.558,
          168.819,
          161.771,
          166.078,
          164.121,
          160.205,
          158.248,
          155.899,
          153.942,
          151.984,
          150.418,
          147.678,
          144.937,
          142.198,
          140.244,
          139.071,
          137.898,
          136.725,
          134.377,
          129.679,
          128.113,
          125.764,
          131.638,
          124.199,
          121.85,
          118.718,
          116.369,
          113.629,
          111.281,
          108.542,
          106.193,
          104.236,
          103.848,
          105.807,
          122.253,
          107.374,
          138.699,
          133.609,
          130.477,
          127.344,
          124.603,
          119.513,
          114.423,
          111.682,
          109.333,
          135.959,
          116.773,
          141.05,
          142.618,
          144.577,
          145.363,
          140.665,
          143.406,
          137.533,
          134.792,
          133.228,
          134.797,
          139.888,
          137.538,
          143.804,
          141.846,
          148.504,
          146.546,
          150.855,
          154.38,
          152.814,
          156.339,
          160.257,
          157.908,
          161.434,
          163.002,
          164.178,
          166.138,
          166.14,
          164.185,
          162.621,
          160.665,
          158.316,
          155.576,
          153.227,
          151.27,
          148.921,
          146.573,
          144.223,
          141.874,
          139.526,
          136.787,
          134.83,
          132.089,
          130.132,
          127.392,
          123.868,
          120.736,
          117.996,
          114.865,
          112.516,
          109.384,
          103.903,
          107.036,
          100.381,
          97.249,
          95.291,
          92.551,
          89.42,
          87.463,
          85.506,
          83.941,
          81.985,
          86.294,
          83.945,
          88.253,
          93.737,
          92.171,
          89.822,
          102.744,
          96.087,
          115.666,
          112.925,
          110.967,
          108.226,
          105.485,
          100.395,
          98.046,
          121.148,
          118.407,
          127.805,
          125.064,
          126.24,
          123.107,
          134.072,
          135.639,
          131.723,
          129.765,
          148.17,
          137.598,
          149.737,
          146.213,
          143.081,
          141.515,
          139.557,
          151.304,
          153.263,
          154.439,
          155.616,
          154.835,
          153.271,
          151.706,
          149.358,
          147.009,
          144.661,
          142.703,
          141.137,
          138.788,
          137.222,
          134.874,
          131.741,
          129.002,
          127.044,
          124.304,
          121.956,
          119.607,
          116.476,
          113.735,
          111.779,
          108.646,
          107.474,
          107.088,
          108.656,
          111.79,
          110.223,
          118.056,
          115.315,
          113.357,
          121.19,
          132.154,
          130.196,
          125.498,
          136.853,
          134.112,
          127.848,
          123.54,
          141.944,
          139.203,
          146.252,
          154.867,
          151.735,
          148.994,
          144.295,
          168.964,
          166.223,
          163.874,
          159.175,
          173.664,
          170.923,
          161.134,
          156.436,
          175.623,
          177.974,
          179.151,
          179.154,
          177.198,
          175.632,
          173.675,
          172.11,
          170.544,
          168.196,
          166.238,
          164.674,
          162.325,
          160.368,
          157.628,
          155.279,
          153.713,
          149.798,
          152.148,
          147.45,
          145.886,
          147.062,
          148.63,
          156.855,
          150.198,
          163.12,
          160.771,
          158.813,
          154.506,
          167.82,
          165.862,
          170.17,
          152.158,
          172.13,
          171.74,
          169.785,
          167.828,
          165.088,
          163.131,
          160.782,
          158.041,
          154.518,
          151.778,
          149.429,
          147.472,
          145.124,
          142.774,
          140.817,
          137.685,
          134.946,
          132.597,
          130.248,
          127.508,
          125.16,
          122.42,
          118.897,
          116.55,
          113.026,
          110.286,
          107.154,
          104.023,
          101.284,
          99.328,
          97.764,
          99.333,
          100.509,
          102.468
        ],
        [
          0.02064,
          0.02064,
          0.02064,
          0.02592,
          0.0312,
          0.0312,
          0.03648,
          0.03648,
          0.04176,
          0.04704,
          0.05232,
          0.0576,
          0.07872,
          0.084,
          0.084,
          0.084,
          0.08928,
          0.09984,
          0.1104,
          0.12636,
          0.14748,
          0.16332,
          0.18972,
          0.21612,
          0.23196,
          0.23196,
          0.21612,
          0.195,
          0.1686,
          0.14748,
          0.12108,
          0.10512,
          0.08928,
          0.07344,
          0.06288,
          0.0576,
          0.06816,
          0.084,
          0.07344,
          0.05232,
          0.04704,
          0.04704,
          0.06288,
          0.084,
          0.09984,
          0.1104,
          0.12108,
          0.12108,
          0.13164,
          0.13692,
          0.14748,
          0.16332,
          0.18444,
          0.18444,
          0.17388,
          0.15804,
          0.1422,
          0.13692,
          0.15804,
          0.16332,
          0.16332,
          0.16332,
          0.17388,
          0.17916,
          0.195,
          0.20028,
          0.21084,
          0.21612,
          0.21084,
          0.2214,
          0.24252,
          0.27948,
          0.29544,
          0.28476,
          0.26364,
          0.2478,
          0.38412,
          0.52536,
          0.43176,
          0.47928,
          0.57372,
          0.62112,
          0.66852,
          0.669,
          0.66948,
          0.85776,
          0.66996,
          0.71736,
          0.6708,
          0.62412,
          0.6246,
          0.76584,
          0.90708,
          1.1422,
          1.3304,
          1.5187,
          1.66,
          1.6134,
          1.7076,
          1.7081,
          1.6614,
          1.4737,
          1.3331,
          1.1924,
          1.0518,
          0.86412,
          0.72348,
          0.72372,
          0.72408,
          0.72444,
          0.86568,
          1.0538,
          1.1951,
          1.0073,
          0.91368,
          0.82008,
          0.77364,
          0.72708,
          0.72756,
          0.72804,
          0.77556,
          1.0106,
          1.1987,
          1.4338,
          1.6218,
          1.8568,
          2.1388,
          2.327,
          2.4215,
          2.2808,
          2.0461,
          1.8584,
          1.7178,
          1.5302,
          1.3896,
          1.296,
          1.2024,
          1.0618,
          1.0621,
          1.1095,
          1.2509,
          1.4392,
          2.426,
          1.6742,
          2.661,
          2.1912,
          1.9562,
          3.0841,
          2.8492,
          3.2723,
          3.2726,
          3.0377,
          2.8499,
          2.6149,
          2.3332,
          2.0984,
          1.9108,
          1.9111,
          2.1462,
          2.4282,
          2.7103,
          2.6166,
          2.5229,
          2.3351,
          2.0533,
          1.7716,
          1.5367,
          1.443,
          2.759,
          1.5844,
          3.182,
          2.9471,
          2.5712,
          2.3364,
          2.0544,
          1.8196,
          3.0884,
          2.9476,
          2.7599,
          2.5252,
          2.3372,
          2.0554,
          1.8205,
          1.6798,
          1.4921,
          1.3043,
          1.0696,
          0.882,
          0.74136,
          0.64764,
          0.60108,
          0.64824,
          0.55476,
          0.60204,
          0.6024,
          0.74376,
          0.93204,
          1.1671,
          1.4022,
          1.5904,
          2.1074,
          1.8254,
          2.3424,
          2.6714,
          2.9534,
          2.9068,
          2.766,
          2.5312,
          2.2493,
          2.0144,
          1.7326,
          1.5449,
          1.3572,
          1.1696,
          1.1231,
          1.1234,
          1.1238,
          1.1242,
          1.1717,
          1.3598,
          1.548,
          1.7363,
          1.8307,
          1.9252,
          1.9255,
          2.02,
          2.0203,
          2.0678,
          2.1151,
          2.2565,
          2.3977,
          2.5859,
          2.774,
          3.0562,
          3.3382,
          3.8551,
          3.5732,
          4.419,
          4.1371,
          4.701,
          4.9362,
          5.2652,
          5.1715,
          4.9368,
          4.6081,
          4.3264,
          3.9976,
          3.8096,
          3.528,
          3.3874,
          3.1525,
          2.9178,
          2.6831,
          2.5896,
          2.6371,
          2.7313,
          2.8256,
          2.9669,
          3.0612,
          3.2024,
          3.4375,
          3.6257,
          4.1429,
          3.8609,
          4.425,
          4.6602,
          5.2712,
          4.9423,
          5.5063,
          5.7415,
          5.8828,
          5.9771,
          6.1654,
          6.4006,
          6.6827,
          6.9648,
          7.2937,
          7.5288,
          7.8109,
          8.1869,
          8.422,
          8.4222,
          8.3756,
          8.1408,
          7.906,
          7.5772,
          7.3422,
          7.2485,
          7.3897,
          7.578,
          7.86,
          8.8938,
          8.6118,
          8.3299,
          8.095,
          9.9746,
          9.6926,
          9.4578,
          9.1758,
          10.351,
          10.821,
          10.539,
          12.042,
          11.76,
          11.525,
          11.29,
          11.056,
          12.888,
          12.606,
          12.277,
          13.123,
          13.264,
          13.03,
          12.795,
          12.513,
          12.325,
          12.137,
          11.856,
          11.574,
          11.01,
          11.386,
          10.728,
          10.446,
          10.259,
          10.118,
          9.9301,
          9.6484,
          9.3664,
          9.1316,
          8.8028,
          8.4739,
          8.1922,
          7.9573,
          7.6756,
          7.3937,
          7.1118,
          6.8768,
          6.642,
          6.3132,
          6.0785,
          5.7966,
          5.5619,
          5.1859,
          4.9512,
          4.7636,
          4.6231,
          4.6237,
          4.7182,
          4.8595,
          5.0478,
          5.2361,
          5.4712,
          5.6123,
          5.8474,
          6.0355,
          6.5994,
          6.3175,
          6.8344,
          7.1165,
          7.3985,
          7.6336,
          7.9156,
          8.6675,
          8.4325,
          8.1506,
          9.0905,
          8.8556,
          9.3256,
          9.7016,
          9.9367,
          9.5138,
          10.83,
          10.642,
          10.172,
          10.407,
          11.065,
          11.018,
          10.924,
          10.736,
          10.502,
          10.314,
          10.126,
          9.891,
          9.656,
          9.3743,
          9.0925,
          8.8577,
          8.6698,
          8.388,
          8.1062,
          7.8244,
          7.5424,
          7.2607,
          7.0259,
          6.7441,
          6.6035,
          6.6508,
          6.9329,
          8.0608,
          7.7788,
          7.4969,
          7.309,
          8.3428,
          10.927,
          10.692,
          10.41,
          10.128,
          9.8934,
          9.6584,
          9.4235,
          9.1416,
          8.8597,
          8.6248,
          10.927,
          10.787,
          10.505,
          10.27,
          10.035,
          9.1896,
          9.7535,
          9.5185,
          8.9548,
          8.72,
          8.438,
          8.2032,
          7.9214,
          7.5925,
          7.405,
          7.1702,
          6.9354,
          6.7476,
          6.4658,
          6.278,
          6.0432,
          5.8084,
          5.5736,
          5.4331,
          5.6213,
          5.8562,
          5.9036,
          6.0449,
          6.1392,
          6.2803,
          6.4216,
          6.6096,
          6.8447,
          6.986,
          6.7512,
          6.5162,
          6.1874,
          5.9054,
          5.7647,
          5.4358,
          5.107,
          4.7783,
          4.5906,
          4.4969,
          4.5444,
          4.7796,
          5.0147,
          5.9076,
          5.1558,
          6.7535,
          6.2365,
          5.6257,
          5.3908,
          7.0355,
          6.5185,
          7.5523,
          7.2704,
          8.6332,
          8.3982,
          8.1632,
          7.8343,
          9.197,
          8.9152,
          9.479,
          15.963,
          15.728,
          10.372,
          10.043,
          9.761,
          15.494,
          15.259,
          15.024,
          14.836,
          14.554,
          14.272,
          14.037,
          13.755,
          13.52,
          13.285,
          12.909,
          12.627,
          12.298,
          11.97,
          11.688,
          11.312,
          10.654,
          10.983,
          16.152,
          16.105,
          16.011,
          15.823,
          15.588,
          15.4,
          14.883,
          15.165,
          14.602,
          14.367,
          14.132,
          13.897,
          13.662,
          13.521,
          13.004,
          13.239,
          12.441,
          12.723,
          12.159,
          11.971,
          11.736,
          11.877,
          12.395,
          12.113,
          13.428,
          12.912,
          12.677,
          15.59,
          15.308,
          14.18,
          13.992,
          13.71,
          13.147,
          16.53,
          16.295,
          16.013,
          15.825,
          15.026,
          14.744,
          14.462,
          19.49,
          19.161,
          18.785,
          18.456,
          18.221,
          17.939,
          17.658,
          17.376,
          17.141,
          16.812,
          19.96,
          20.665,
          20.43,
          20.195,
          20.947,
          19.725,
          21.135,
          21.276,
          21.417,
          21.605,
          21.371,
          21.136,
          20.666,
          20.384,
          20.901,
          20.102,
          19.538,
          19.773,
          19.163,
          18.834,
          18.505,
          18.223,
          17.894,
          17.612,
          17.283,
          17.048,
          16.813,
          16.437,
          16.156,
          15.78,
          15.451,
          15.122,
          14.793,
          14.464,
          14.182,
          13.854,
          13.478,
          13.149,
          12.773,
          12.444,
          12.257,
          11.928,
          11.693,
          11.364,
          10.988,
          10.753,
          10.566,
          10.284,
          10.096,
          9.8143,
          9.7675,
          9.6739,
          9.8621,
          9.9564,
          9.8159,
          9.722,
          9.4872,
          9.2525,
          9.3468,
          9.5348,
          11.038,
          10.803,
          10.569,
          10.334,
          9.7229,
          11.226,
          10.099,
          9.9108,
          11.79,
          11.462,
          11.885,
          12.026,
          11.885,
          11.744,
          11.51,
          11.275,
          11.369,
          12.215,
          11.51,
          12.638,
          11.886,
          11.651,
          13.766,
          13.484,
          13.202,
          12.967,
          14.283,
          14.001,
          15.41,
          14.565,
          15.129,
          14.847,
          16.726,
          16.256,
          15.927,
          15.599,
          18.23,
          17.948,
          17.713,
          17.384,
          17.102,
          16.868,
          18.559,
          18.888,
          19.217,
          19.311,
          19.124,
          18.513,
          18.795,
          18.184,
          17.902,
          17.62,
          17.386,
          17.198,
          17.433,
          17.668,
          18.42,
          18.138,
          17.903,
          18.608,
          18.937,
          20.112,
          19.736,
          19.501,
          19.266,
          20.394,
          20.629,
          20.77,
          20.865,
          21.006,
          21.241,
          21.429,
          22.275,
          22.51,
          21.946,
          21.664,
          23.262,
          22.745,
          23.497,
          23.027,
          23.685,
          24.202,
          23.873,
          24.061,
          23.733,
          23.545,
          23.31,
          22.981,
          22.653,
          22.465,
          22.23,
          21.948,
          21.713,
          21.432,
          21.338,
          21.103,
          20.869,
          20.587,
          20.258,
          19.413,
          19.929,
          19.695,
          19.225,
          18.99,
          18.708,
          18.473,
          18.238,
          18.05,
          17.721,
          17.392,
          17.064,
          16.829,
          16.689,
          16.548,
          16.407,
          16.125,
          15.561,
          15.374,
          15.092,
          15.797,
          14.904,
          14.622,
          14.246,
          13.964,
          13.635,
          13.354,
          13.025,
          12.743,
          12.508,
          12.462,
          12.697,
          14.67,
          12.885,
          16.644,
          16.033,
          15.657,
          15.281,
          14.952,
          14.342,
          13.731,
          13.402,
          13.12,
          16.315,
          14.013,
          16.926,
          17.114,
          17.349,
          17.444,
          16.88,
          17.209,
          16.504,
          16.175,
          15.987,
          16.176,
          16.787,
          16.505,
          17.256,
          17.022,
          17.82,
          17.586,
          18.103,
          18.526,
          18.338,
          18.761,
          19.231,
          18.949,
          19.372,
          19.56,
          19.701,
          19.937,
          19.937,
          19.702,
          19.515,
          19.28,
          18.998,
          18.669,
          18.387,
          18.152,
          17.871,
          17.589,
          17.307,
          17.025,
          16.743,
          16.414,
          16.18,
          15.851,
          15.616,
          15.287,
          14.864,
          14.488,
          14.16,
          13.784,
          13.502,
          13.126,
          12.468,
          12.844,
          12.046,
          11.67,
          11.435,
          11.106,
          10.73,
          10.496,
          10.261,
          10.073,
          9.8382,
          10.355,
          10.073,
          10.59,
          11.248,
          11.061,
          10.779,
          12.329,
          11.53,
          13.88,
          13.551,
          13.316,
          12.987,
          12.658,
          12.047,
          11.766,
          14.538,
          14.209,
          15.337,
          15.008,
          15.149,
          14.773,
          16.089,
          16.277,
          15.807,
          15.572,
          17.78,
          16.512,
          17.968,
          17.546,
          17.17,
          16.982,
          16.747,
          18.156,
          18.392,
          18.533,
          18.674,
          18.58,
          18.393,
          18.205,
          17.923,
          17.641,
          17.359,
          17.124,
          16.936,
          16.655,
          16.467,
          16.185,
          15.809,
          15.48,
          15.245,
          14.916,
          14.635,
          14.353,
          13.977,
          13.648,
          13.413,
          13.038,
          12.897,
          12.851,
          13.039,
          13.415,
          13.227,
          14.167,
          13.838,
          13.603,
          14.543,
          15.858,
          15.624,
          15.06,
          16.422,
          16.093,
          15.342,
          14.825,
          17.033,
          16.704,
          17.55,
          18.584,
          18.208,
          17.879,
          17.315,
          20.276,
          19.947,
          19.665,
          19.101,
          20.84,
          20.511,
          19.336,
          18.772,
          21.075,
          21.357,
          21.498,
          21.498,
          21.264,
          21.076,
          20.841,
          20.653,
          20.465,
          20.184,
          19.949,
          19.761,
          19.479,
          19.244,
          18.915,
          18.633,
          18.446,
          17.976,
          18.258,
          17.694,
          17.506,
          17.647,
          17.836,
          18.823,
          18.024,
          19.574,
          19.293,
          19.058,
          18.541,
          20.138,
          19.903,
          20.42,
          18.259,
          20.656,
          20.609,
          20.374,
          20.139,
          19.811,
          19.576,
          19.294,
          18.965,
          18.542,
          18.213,
          17.931,
          17.697,
          17.415,
          17.133,
          16.898,
          16.522,
          16.194,
          15.912,
          15.63,
          15.301,
          15.019,
          14.69,
          14.268,
          13.986,
          13.563,
          13.234,
          12.858,
          12.483,
          12.154,
          11.919,
          11.732,
          11.92,
          12.061,
          12.296
        ]
      ]
    }
  },
  "C0515-004": {
    "reaction": {
      "0": {
        "x4_code": "(10-NE-21(A,TOT),,WID)",
        "0": {
          "code": [
            "10-NE-21",
            [
              "A,TOT"
            ],
            ",,WID"
          ],
          "type": null,
          "target": "10-NE-21",
          "process": "A,TOT",
          "sf49": ",,WID",
          "sf4": null,
          "sf5": null,
          "sf6": "WID",
          "sf7": null,
          "sf8": null,
          "sf9": null
        },
        "type": null,
        "free_text": ""
      }
    },
    "extra_information": {
      "sample": {
        "0": [
          {
            "x4_code": null,
            "free_txt": [
              "\"Drive-in\" target made by bombarding a tantalum blank",
              " with 25-keV 21Ne ions."
            ]
          }
        ]
      },
      "status": {
        "0": [
          {
            "x4_code": null,
            "free_txt": [
              "Data taken from Table I in reference."
            ]
          }
        ]
      }
    },
    "common": null,
    "data": {
      "heads": [
        "EN-RES",
        "DATA",
        "DATA-MAX",
        "DATA-APRX"
      ],
      "units": [
        "MEV",
        "KEV",
        "KEV",
        "KEV"
      ],
      "data": [
        [
          1.86,
          2.06,
          2.21,
          2.27,
          2.5,
          2.59,
          2.63,
          2.67,
          2.75,
          2.84,
          2.92,
          3.01,
          3.05,
          3.18,
          3.23,
          3.29,
          3.37,
          3.44,
          3.56,
          3.73,
          3.78,
          3.86,
          3.9,
          4.02,
          4.07,
          4.16,
          4.23,
          4.37,
          4.43,
          4.49,
          4.61,
          4.65,
          4.7,
          4.74,
          4.79,
          4.84,
          4.89,
          5.03,
          5.08
        ],
        [
          null,
          null,
          null,
          35.0,
          50.0,
          20.0,
          20.0,
          20.0,
          30.0,
          55.0,
          30.0,
          50.0,
          25.0,
          25.0,
          35.0,
          25.0,
          40.0,
          80.0,
          65.0,
          85.0,
          35.0,
          25.0,
          25.0,
          40.0,
          50.0,
          25.0,
          80.0,
          30.0,
          null,
          50.0,
          null,
          null,
          null,
          null,
          null,
          null,
          null,
          90.0,
          35.0
        ],
        [
          30.0,
          25.0,
          20.0,
          null,
          null,
          null,
          null,
          null,
          null,
          null,
          null,
          null,
          null,
          null,
          null,
          null,
          null,
          null,
          null,
          null,
          null,
          null,
          null,
          null,
          null,
          null,
          null,
          null,
          null,
          null,
          null,
          null,
          null,
          null,
          null,
          null,
          null,
          null,
          null
        ],
        [
          null,
          null,
          null,
          null,
          null,
          null,
          null,
          null,
          null,
          null,
          null,
          null,
          null,
          null,
          null,
          null,
          null,
          null,
          null,
          null,
          null,
          null,
          null,
          null,
          null,
          null,
          null,
          null,
          35.0,
          null,
          35.0,
          35.0,
          35.0,
          50.0,
          25.0,
          35.0,
          25.0,
          null,
          null
        ]
      ]
    }
  },
  "C0515-005": {
    "reaction": {
      "0": {
        "x4_code": "(10-NE-22(A,TOT),,WID)",
        "0": {
          "code": [
            "10-NE-22",
            [
              "A,TOT"
            ],
            ",,WID"
          ],
          "type": null,
          "target": "10-NE-22",
          "process": "A,TOT",
          "sf49": ",,WID",
          "sf4": null,
          "sf5": null,
          "sf6": "WID",
          "sf7": null,
          "sf8": null,
          "sf9": null
        },
        "type": null,
        "free_text": ""
      }
    },
    "extra_information": {
      "sample": {
        "0": [
          {
            "x4_code": null,
            "free_txt": [
              "\"Drive-in\" target made by bombarding a tantalum blank",
              " with 25-keV 22Ne ions."
            ]
          }
        ]
      },
      "status": {
        "0": [
          {
            "x4_code": null,
            "free_txt": [
              "Data taken from Table II in reference."
            ]
          }
        ]
      }
    },
    "common": null,
    "data": {
      "heads": [
        "EN-RES",
        "DATA",
        "DATA-APRX"
      ],
      "units": [
        "MEV",
        "KEV",
        "KEV"
      ],
      "data": [
        [
          1.98,
          2.05,
          2.15,
          2.29,
          2.44,
          2.56,
          2.64,
          2.68,
          2.76,
          2.86,
          2.88,
          2.97,
          3.02,
          3.06,
          3.2,
          3.31,
          3.4,
          3.44,
          3.55,
          3.6,
          3.66,
          3.7,
          3.86,
          3.94,
          3.97,
          4.01,
          4.05,
          4.13,
          4.21,
          4.29,
          4.33,
          4.4,
          4.46,
          4.5,
          4.55,
          4.59,
          4.66,
          4.73,
          4.86,
          4.98,
          5.05
        ],
        [
          200.0,
          40.0,
          null,
          null,
          null,
          null,
          null,
          null,
          null,
          null,
          40.0,
          20.0,
          25.0,
          20.0,
          25.0,
          50.0,
          30.0,
          20.0,
          25.0,
          35.0,
          60.0,
          25.0,
          60.0,
          25.0,
          20.0,
          20.0,
          15.0,
          25.0,
          45.0,
          null,
          null,
          null,
          null,
          null,
          null,
          null,
          20.0,
          100.0,
          60.0,
          75.0,
          50.0
        ],
        [
          null,
          null,
          20.0,
          25.0,
          20.0,
          80.0,
          30.0,
          30.0,
          20.0,
          30.0,
          null,
          null,
          null,
          null,
          null,
          null,
          null,
          null,
          null,
          null,
          null,
          null,
          null,
          null,
          null,
          null,
          null,
          null,
          null,
          30.0,
          25.0,
          30.0,
          25.0,
          30.0,
          25.0,
          20.0,
          null,
          null,
          null,
          null,
          null
        ]
      ]
    }
  },
  "C0515-006": {
    "reaction": {
      "0": {
        "x4_code": "(10-NE-21(A,N),,STF)",
        "0": {
          "code": [
            "10-NE-21",
            [
              "A,N"
            ],
            ",,STF"
          ],
          "type": null,
          "target": "10-NE-21",
          "process": "A,N",
          "sf49": ",,STF",
          "sf4": null,
          "sf5": null,
          "sf6": "STF",
          "sf7": null,
          "sf8": null,
          "sf9": null
        },
        "type": null,
        "free_text": ""
      }
    },
    "extra_information": {
      "analysis": {
        "0": [
          {
            "x4_code": "(AREA)",
            "free_txt": []
          }
        ]
      },
      "sample": {
        "0": [
          {
            "x4_code": null,
            "free_txt": [
              "\"Drive-in\" target made by bombarding a tantalum blank",
              "with 25-keV 21Ne ions."
            ]
          }
        ]
      },
      "status": {
        "0": [
          {
            "x4_code": "(TABLE)",
            "free_txt": [
              " Erratum data."
            ]
          }
        ]
      }
    },
    "common": null,
    "data": {
      "heads": [
        "EN-RES-MIN",
        "EN-RES-MAX",
        "DATA"
      ],
      "units": [
        "MEV",
        "MEV",
        "NO-DIM"
      ],
      "data": [
        [
          1.0
        ],
        [
          5.0
        ],
        [
          0.048
        ]
      ]
    }
  },
  "C0515-007": {
    "reaction": {
      "0": {
        "x4_code": "(10-NE-22(A,N),,STF)",
        "0": {
          "code": [
            "10-NE-22",
            [
              "A,N"
            ],
            ",,STF"
          ],
          "type": null,
          "target": "10-NE-22",
          "process": "A,N",
          "sf49": ",,STF",
          "sf4": null,
          "sf5": null,
          "sf6": "STF",
          "sf7": null,
          "sf8": null,
          "sf9": null
        },
        "type": null,
        "free_text": ""
      }
    },
    "extra_information": {
      "analysis": {
        "0": [
          {
            "x4_code": "(AREA)",
            "free_txt": []
          }
        ]
      },
      "sample": {
        "0": [
          {
            "x4_code": null,
            "free_txt": [
              "\"Drive-in\" target made by bombarding a tantalum blank",
              "with 25-keV 22Ne ions."
            ]
          }
        ]
      },
      "status": {
        "0": [
          {
            "x4_code": "(TABLE)",
            "free_txt": [
              " Erratum data."
            ]
          }
        ]
      }
    },
    "common": null,
    "data": {
      "heads": [
        "EN-RES-MIN",
        "EN-RES-MAX",
        "DATA"
      ],
      "units": [
        "MEV",
        "MEV",
        "NO-DIM"
      ],
      "data": [
        [
          1.0
        ],
        [
          5.0
        ],
        [
          0.049
        ]
      ]
    }
  }
}