{
  "bib": {
    "title": "Measurement Of The Neutron Total Cross Section Of Fluorine From 5 Ev To 20 Mev.",
    "authors": [
      {
        "name": "D.C.Larson"
      },
      {
        "name": "C.H.Johnson"
      },
      {
        "name": "J.A.Harvey"
      },
      {
        "name": "N.W.Hill"
      }
    ],
    "institutes": [
      {
        "x4_code": "(1USAORL)",
        "free_txt": []
      }
    ],
    "references": {
      "0": [
        {
          "x4_code": "(R,ORNL-TM-5612,197610)",
          "free_txt": [],
          "publication_year": "1976"
        }
      ]
    },
    "facility": {
      "0": [
        {
          "x4_code": "(LINAC,1USAORL)",
          "free_txt": [
            " ORELA"
          ],
          "facility_type": "(LINAC)",
          "insitute": "(1USAORL)"
        }
      ]
    },
    "history": [
      {
        "x4_code": "(19780823C)",
        "free_txt": []
      },
      {
        "x4_code": "(19801014A)",
        "free_txt": [
          " Reference update"
        ]
      },
      {
        "x4_code": "(20100714A)",
        "free_txt": [
          " VM:Updated to new date formats,lower case.",
          "            BIB updates."
        ]
      }
    ]
  },
  "10778-001": {
    "extra_information": {
      "correction": {
        "0": [
          {
            "x4_code": null,
            "free_txt": [
              "Data corrected for deadtime and background effects."
            ]
          }
        ]
      },
      "detector": {
        "0": [
          {
            "x4_code": "(GLASD)",
            "free_txt": [
              " 6Li glass detector for 80-m flight path."
            ]
          },
          {
            "x4_code": "(SCIN)",
            "free_txt": [
              "  Ne-110 detector for 200-m flight path."
            ]
          }
        ]
      },
      "facility": {
        "0": [
          {
            "x4_code": "(LINAC,1USAORL)",
            "free_txt": [
              " ORELA"
            ]
          }
        ]
      },
      "inc-source": {
        "0": [
          {
            "x4_code": "(EVAP)",
            "free_txt": [
              " Electrons on tantalum target."
            ]
          }
        ]
      },
      "method": {
        "0": [
          {
            "x4_code": "(TOF)",
            "free_txt": [
              " Time-of-flight. 80-m and 200-m flight paths."
            ]
          }
        ]
      },
      "sample": {
        "0": [
          {
            "x4_code": null,
            "free_txt": [
              "Sample thicknesses for various runs in atoms/b:",
              " E-min       E-max       F.P.(m) Thickness  Target",
              "     4.56 eV    25.99keV  80.     0.1309      Ta",
              "    26.15keV    28.32keV 200.     0.01639     Ta",
              "    28.47keV    45.15keV  80.     0.1309      Ta",
              "    45.53keV    53.19keV 200.     0.01689     Ta",
              "    53.37keV    81.88keV 200.     0.1309      Ta",
              "    82.70keV   107.8 keV 200.     0.01689     Ta",
              "   108.6 keV   309.2 keV 200.     0.1309      Be",
              "   309.3 keV   392.0 keV 200.     0.1309      Ta",
              "   393.7 keV  1270.0 keV 200.     0.1309      Be",
              "  1271.6 keV  1291.1 keV 200.     0.1309      Ta",
              "  1291.9 keV    21.8 MeV 200.     0.1309      Be"
            ]
          }
        ]
      },
      "status": {
        "0": [
          {
            "x4_code": "(APRVD)",
            "free_txt": [
              " Approved by D.C.Larson, 1978/10/5."
            ]
          }
        ]
      }
    }
  },
  "10778-002": {
    "reaction": {
      "0": {
        "x4_code": "(9-F-19(N,TOT),,SIG)",
        "0": {
          "code": [
            "9-F-19",
            [
              "N,TOT"
            ],
            ",,SIG"
          ],
          "type": null,
          "target": "9-F-19",
          "process": "N,TOT",
          "sf49": ",,SIG",
          "sf4": null,
          "sf5": null,
          "sf6": "SIG",
          "sf7": null,
          "sf8": null,
          "sf9": null
        },
        "type": null,
        "free_text": ""
      }
    },
    "extra_information": {
      "err-analys": {
        "0": [
          {
            "x4_code": "(ERR-S)",
            "free_txt": [
              " Data errors given are statistical errors only"
            ]
          },
          {
            "x4_code": "(ERR-SYS)",
            "free_txt": [
              " Estimated systematic uncertainty."
            ]
          }
        ]
      },
      "status": {
        "0": [
          {
            "x4_code": "(TABLE)",
            "free_txt": [
              " Data received on magnetic tape, D.C. Larson,",
              "        1976/6."
            ]
          }
        ]
      }
    },
    "common": {
      "heads": [
        "ERR-SYS"
      ],
      "units": [
        "PER-CENT"
      ],
      "data": [
        [
          3.0
        ]
      ]
    },
    "data": {
      "heads": [
        "EN",
        "DATA",
        "ERR-S"
      ],
      "units": [
        "KEV",
        "B",
        "B"
      ],
      "data": [
        [
          0.0045575,
          0.0049117,
          0.0053088,
          0.0057562,
          0.0062626,
          0.0068338,
          0.0071668,
          0.0073347,
          0.0075086,
          0.0076888,
          0.0078756,
          0.0080692,
          0.0082701,
          0.0084786,
          0.008695,
          0.0089198,
          0.0091535,
          0.0093965,
          0.0096493,
          0.0099124,
          0.010186,
          0.010472,
          0.01077,
          0.01108,
          0.011405,
          0.011743,
          0.012097,
          0.012468,
          0.012855,
          0.013261,
          0.013686,
          0.014133,
          0.014601,
          0.015093,
          0.01561,
          0.016155,
          0.016728,
          0.017333,
          0.017971,
          0.018644,
          0.019357,
          0.020111,
          0.02091,
          0.021757,
          0.022657,
          0.023614,
          0.024633,
          0.02572,
          0.02688,
          0.02812,
          0.029448,
          0.030873,
          0.032403,
          0.03405,
          0.035826,
          0.037745,
          0.039821,
          0.042075,
          0.044524,
          0.047195,
          0.050113,
          0.05331,
          0.056823,
          0.060695,
          0.064977,
          0.069729,
          0.075022,
          0.08094,
          0.087588,
          0.092228,
          0.094163,
          0.096159,
          0.09822,
          0.10035,
          0.10254,
          0.10482,
          0.10716,
          0.10959,
          0.1121,
          0.11469,
          0.11738,
          0.12017,
          0.12305,
          0.12604,
          0.12914,
          0.13235,
          0.13569,
          0.13916,
          0.14275,
          0.14649,
          0.15038,
          0.15443,
          0.15864,
          0.16303,
          0.1676,
          0.17236,
          0.17734,
          0.18253,
          0.18795,
          0.19361,
          0.19954,
          0.20574,
          0.21224,
          0.21905,
          0.22619,
          0.23369,
          0.24157,
          0.24985,
          0.25857,
          0.26775,
          0.27742,
          0.28764,
          0.29842,
          0.30983,
          0.3219,
          0.33469,
          0.34825,
          0.36266,
          0.37799,
          0.3943,
          0.4117,
          0.42965,
          0.44144,
          0.45159,
          0.46209,
          0.47296,
          0.48422,
          0.49588,
          0.50797,
          0.52051,
          0.53352,
          0.54702,
          0.56105,
          0.57561,
          0.59076,
          0.60651,
          0.62289,
          0.63995,
          0.65773,
          0.67625,
          0.69556,
          0.71572,
          0.73676,
          0.75875,
          0.78173,
          0.80577,
          0.83095,
          0.85732,
          0.88496,
          0.91397,
          0.94442,
          0.97642,
          1.0101,
          1.0455,
          1.0828,
          1.1222,
          1.1637,
          1.2076,
          1.2541,
          1.3032,
          1.3553,
          1.4106,
          1.4693,
          1.5308,
          1.5729,
          1.6069,
          1.6421,
          1.6785,
          1.7161,
          1.755,
          1.7952,
          1.8368,
          1.8799,
          1.9245,
          1.9707,
          2.0186,
          2.0682,
          2.1198,
          2.1732,
          2.2287,
          2.2864,
          2.3463,
          2.4087,
          2.4735,
          2.541,
          2.6113,
          2.6846,
          2.7609,
          2.8406,
          2.9238,
          3.0107,
          3.1015,
          3.1965,
          3.296,
          3.4001,
          3.5093,
          3.6238,
          3.744,
          3.8703,
          4.0031,
          4.1428,
          4.29,
          4.4452,
          4.6089,
          4.7819,
          4.9637,
          5.0944,
          5.1936,
          5.2957,
          5.4009,
          5.5092,
          5.6208,
          5.7358,
          5.8544,
          5.9767,
          6.1029,
          6.2331,
          6.3675,
          6.5064,
          6.6498,
          6.798,
          6.9512,
          7.1097,
          7.2736,
          7.4433,
          7.619,
          7.801,
          7.9896,
          8.1851,
          8.3879,
          8.5983,
          8.8167,
          9.0436,
          9.2793,
          9.5244,
          9.7792,
          10.045,
          10.321,
          10.608,
          10.908,
          11.221,
          11.548,
          11.889,
          12.245,
          12.618,
          13.008,
          13.416,
          13.843,
          14.168,
          14.398,
          14.633,
          14.874,
          15.121,
          15.374,
          15.633,
          15.899,
          16.172,
          16.452,
          16.74,
          17.035,
          17.337,
          17.648,
          17.968,
          18.296,
          18.633,
          18.98,
          19.336,
          19.703,
          20.08,
          20.375,
          20.582,
          20.793,
          21.007,
          21.224,
          21.444,
          21.668,
          21.896,
          22.127,
          22.361,
          22.6,
          22.842,
          23.088,
          23.339,
          23.593,
          23.851,
          24.114,
          24.381,
          24.653,
          24.846,
          24.957,
          25.069,
          25.181,
          25.295,
          25.409,
          25.524,
          25.64,
          25.757,
          25.874,
          25.992,
          26.151,
          26.198,
          26.245,
          26.293,
          26.34,
          26.388,
          26.436,
          26.484,
          26.532,
          26.58,
          26.628,
          26.677,
          26.708,
          26.723,
          26.737,
          26.752,
          26.767,
          26.781,
          26.796,
          26.81,
          26.825,
          26.84,
          26.855,
          26.869,
          26.884,
          26.899,
          26.913,
          26.928,
          26.943,
          26.958,
          26.973,
          26.987,
          27.002,
          27.017,
          27.032,
          27.047,
          27.062,
          27.076,
          27.091,
          27.106,
          27.121,
          27.136,
          27.151,
          27.166,
          27.181,
          27.196,
          27.211,
          27.226,
          27.241,
          27.256,
          27.271,
          27.286,
          27.301,
          27.316,
          27.331,
          27.346,
          27.361,
          27.377,
          27.392,
          27.407,
          27.422,
          27.437,
          27.452,
          27.468,
          27.483,
          27.516,
          27.567,
          27.618,
          27.669,
          27.72,
          27.772,
          27.823,
          27.875,
          27.927,
          27.979,
          28.031,
          28.11,
          28.215,
          28.321,
          28.469,
          28.605,
          28.742,
          28.881,
          29.02,
          29.161,
          29.302,
          29.445,
          29.588,
          29.842,
          30.21,
          30.585,
          30.967,
          31.356,
          31.752,
          32.157,
          32.568,
          32.988,
          33.416,
          33.853,
          34.298,
          34.752,
          35.215,
          35.687,
          36.169,
          36.66,
          37.162,
          37.674,
          38.197,
          38.73,
          39.275,
          39.832,
          40.286,
          40.631,
          40.981,
          41.335,
          41.694,
          42.058,
          42.427,
          42.8,
          43.179,
          43.562,
          43.951,
          44.344,
          44.743,
          45.148,
          45.529,
          45.638,
          45.746,
          45.856,
          45.965,
          46.075,
          46.185,
          46.296,
          46.407,
          46.519,
          46.631,
          46.743,
          46.856,
          46.969,
          47.083,
          47.197,
          47.311,
          47.426,
          47.489,
          47.512,
          47.547,
          47.581,
          47.616,
          47.651,
          47.686,
          47.72,
          47.755,
          47.79,
          47.825,
          47.86,
          47.895,
          47.93,
          47.965,
          48.0,
          48.035,
          48.071,
          48.106,
          48.141,
          48.176,
          48.212,
          48.247,
          48.283,
          48.318,
          48.354,
          48.389,
          48.425,
          48.46,
          48.496,
          48.532,
          48.567,
          48.603,
          48.639,
          48.675,
          48.711,
          48.747,
          48.783,
          48.819,
          48.855,
          48.891,
          48.927,
          48.963,
          48.999,
          49.036,
          49.072,
          49.108,
          49.145,
          49.181,
          49.218,
          49.254,
          49.291,
          49.327,
          49.364,
          49.4,
          49.437,
          49.474,
          49.511,
          49.548,
          49.584,
          49.621,
          49.658,
          49.695,
          49.732,
          49.769,
          49.806,
          49.844,
          49.881,
          49.918,
          49.955,
          49.993,
          50.03,
          50.067,
          50.105,
          50.142,
          50.18,
          50.217,
          50.255,
          50.293,
          50.33,
          50.368,
          50.406,
          50.444,
          50.482,
          50.52,
          50.558,
          50.596,
          50.634,
          50.672,
          50.754,
          50.882,
          51.01,
          51.139,
          51.268,
          51.397,
          51.527,
          51.658,
          51.789,
          51.92,
          52.052,
          52.185,
          52.318,
          52.451,
          52.585,
          52.72,
          52.923,
          53.195,
          53.373,
          53.649,
          53.926,
          54.206,
          54.489,
          54.773,
          55.06,
          55.348,
          55.64,
          55.933,
          56.229,
          56.527,
          56.828,
          57.131,
          57.744,
          58.682,
          59.644,
          60.629,
          61.639,
          62.674,
          63.736,
          64.825,
          65.783,
          66.369,
          66.944,
          67.526,
          68.116,
          68.714,
          69.32,
          69.934,
          70.556,
          71.186,
          71.825,
          72.472,
          73.128,
          73.794,
          74.468,
          75.152,
          75.845,
          76.547,
          77.26,
          77.982,
          78.715,
          79.333,
          79.834,
          80.338,
          80.848,
          81.362,
          81.882,
          82.697,
          83.363,
          84.037,
          84.719,
          85.41,
          86.109,
          86.817,
          87.534,
          88.259,
          88.994,
          89.738,
          90.491,
          91.254,
          92.026,
          92.808,
          93.6,
          94.403,
          95.216,
          96.039,
          96.873,
          97.718,
          98.574,
          99.441,
          100.32,
          101.21,
          102.11,
          103.03,
          103.95,
          104.89,
          105.85,
          106.81,
          107.79,
          108.57,
          109.17,
          109.77,
          110.38,
          111.0,
          111.72,
          112.56,
          113.4,
          114.26,
          115.12,
          116.0,
          116.88,
          117.78,
          118.68,
          119.6,
          120.53,
          121.46,
          122.37,
          122.99,
          123.59,
          124.2,
          124.81,
          125.42,
          126.04,
          126.67,
          127.3,
          127.93,
          128.57,
          129.22,
          129.87,
          130.52,
          131.18,
          131.84,
          132.51,
          133.19,
          133.87,
          134.55,
          135.24,
          135.94,
          136.64,
          137.34,
          138.05,
          138.77,
          139.49,
          140.22,
          140.95,
          141.69,
          142.44,
          143.19,
          143.95,
          144.71,
          145.48,
          146.26,
          147.04,
          147.83,
          148.62,
          149.42,
          150.23,
          151.04,
          151.86,
          152.69,
          153.52,
          154.37,
          155.21,
          156.07,
          156.93,
          157.8,
          158.68,
          159.56,
          160.45,
          161.35,
          162.25,
          163.17,
          164.09,
          165.02,
          165.96,
          166.9,
          167.86,
          168.82,
          169.79,
          170.76,
          171.75,
          172.75,
          173.75,
          174.76,
          175.78,
          176.82,
          177.85,
          178.9,
          179.96,
          181.03,
          182.11,
          183.19,
          184.29,
          185.4,
          186.51,
          187.64,
          188.78,
          189.92,
          191.08,
          192.25,
          193.43,
          194.62,
          195.82,
          197.03,
          198.25,
          199.49,
          200.73,
          201.99,
          203.26,
          204.54,
          205.58,
          206.36,
          207.14,
          207.93,
          208.73,
          209.53,
          210.33,
          211.14,
          211.95,
          212.77,
          213.59,
          214.42,
          215.25,
          216.09,
          216.93,
          217.77,
          218.63,
          219.48,
          220.34,
          221.21,
          222.08,
          222.96,
          223.84,
          224.73,
          225.62,
          226.52,
          227.42,
          228.33,
          229.25,
          230.16,
          231.09,
          232.02,
          232.96,
          233.9,
          234.85,
          235.8,
          236.76,
          237.73,
          238.7,
          239.67,
          240.66,
          241.65,
          242.64,
          243.64,
          244.65,
          245.66,
          246.69,
          247.71,
          248.74,
          249.78,
          250.83,
          251.88,
          252.94,
          254.01,
          255.08,
          256.16,
          257.25,
          258.07,
          258.62,
          259.17,
          259.72,
          260.27,
          260.83,
          261.38,
          261.94,
          262.5,
          263.07,
          263.54,
          263.91,
          264.29,
          264.67,
          265.05,
          265.43,
          265.81,
          266.19,
          266.58,
          266.96,
          267.35,
          267.73,
          268.12,
          268.5,
          268.89,
          269.28,
          269.77,
          270.35,
          270.94,
          271.53,
          272.12,
          272.82,
          273.61,
          274.41,
          275.21,
          276.02,
          276.83,
          277.64,
          278.46,
          279.28,
          280.1,
          280.93,
          281.76,
          282.59,
          283.43,
          284.28,
          285.12,
          285.97,
          286.82,
          287.68,
          288.54,
          289.41,
          290.28,
          291.15,
          292.03,
          292.91,
          293.79,
          294.68,
          295.58,
          296.47,
          297.37,
          298.28,
          299.19,
          300.1,
          301.02,
          301.94,
          302.87,
          303.8,
          304.73,
          305.67,
          306.61,
          307.56,
          308.09,
          308.18,
          308.28,
          308.37,
          308.47,
          308.56,
          308.66,
          308.75,
          308.82,
          308.87,
          308.92,
          308.97,
          309.02,
          309.06,
          309.11,
          309.16,
          309.25,
          309.3,
          309.35,
          309.39,
          309.44,
          309.49,
          309.54,
          309.58,
          309.63,
          309.68,
          309.73,
          309.78,
          309.82,
          309.87,
          309.92,
          309.97,
          310.02,
          310.07,
          310.11,
          310.16,
          310.21,
          310.26,
          310.52,
          311.0,
          311.49,
          311.97,
          312.46,
          312.95,
          313.68,
          314.66,
          315.64,
          316.63,
          317.63,
          318.63,
          319.63,
          320.64,
          321.65,
          322.67,
          324.21,
          326.28,
          328.36,
          330.47,
          332.59,
          334.74,
          336.91,
          339.1,
          341.31,
          343.54,
          345.79,
          348.07,
          350.37,
          352.69,
          355.04,
          357.4,
          359.8,
          362.21,
          364.65,
          367.12,
          369.61,
          372.12,
          373.65,
          374.16,
          374.67,
          375.18,
          375.69,
          376.2,
          376.72,
          377.23,
          377.75,
          378.27,
          378.79,
          379.31,
          379.83,
          380.35,
          380.87,
          381.4,
          381.92,
          382.35,
          382.68,
          383.01,
          383.34,
          383.67,
          384.0,
          384.33,
          384.57,
          384.7,
          384.83,
          384.96,
          385.1,
          385.23,
          385.36,
          385.5,
          385.63,
          385.76,
          385.9,
          386.03,
          386.16,
          386.3,
          386.43,
          386.57,
          386.7,
          386.83,
          386.97,
          387.1,
          387.24,
          387.37,
          387.5,
          387.64,
          387.77,
          387.91,
          388.04,
          388.18,
          388.51,
          389.05,
          389.59,
          390.14,
          390.68,
          391.23,
          392.01,
          393.73,
          394.77,
          395.8,
          396.85,
          397.89,
          398.94,
          400.0,
          401.06,
          402.12,
          403.19,
          404.26,
          405.34,
          406.42,
          407.5,
          408.41,
          409.13,
          409.86,
          410.6,
          411.33,
          412.07,
          412.8,
          413.54,
          414.28,
          414.84,
          415.21,
          415.59,
          415.96,
          416.33,
          416.71,
          417.08,
          417.46,
          417.83,
          418.21,
          418.59,
          418.97,
          419.34,
          419.72,
          420.1,
          420.48,
          420.86,
          421.24,
          421.62,
          422.0,
          422.38,
          422.77,
          423.15,
          423.53,
          423.92,
          424.3,
          424.69,
          425.07,
          425.46,
          425.85,
          426.23,
          426.62,
          427.01,
          427.4,
          427.79,
          428.37,
          429.15,
          429.94,
          430.72,
          431.51,
          432.3,
          433.1,
          434.29,
          435.89,
          437.49,
          439.11,
          440.74,
          442.37,
          444.01,
          445.67,
          447.33,
          449.0,
          450.68,
          452.37,
          454.07,
          455.78,
          457.5,
          459.23,
          460.96,
          462.71,
          464.47,
          466.02,
          466.95,
          467.84,
          468.73,
          469.63,
          470.52,
          471.42,
          472.33,
          473.23,
          474.14,
          475.05,
          475.96,
          476.88,
          477.8,
          478.72,
          479.64,
          480.57,
          481.5,
          482.43,
          483.36,
          484.3,
          485.24,
          486.18,
          487.13,
          488.08,
          489.03,
          489.98,
          490.94,
          491.9,
          492.86,
          493.83,
          494.79,
          495.77,
          496.74,
          497.72,
          498.7,
          499.68,
          500.66,
          501.65,
          502.64,
          503.64,
          504.63,
          505.63,
          506.64,
          507.64,
          508.65,
          509.66,
          510.68,
          511.69,
          512.72,
          513.74,
          514.77,
          515.8,
          516.83,
          517.87,
          518.91,
          519.95,
          520.99,
          522.04,
          523.1,
          524.15,
          525.21,
          526.27,
          527.34,
          528.4,
          529.48,
          530.55,
          531.63,
          532.71,
          533.79,
          534.88,
          535.97,
          537.07,
          538.17,
          539.27,
          540.37,
          541.48,
          542.59,
          543.71,
          544.82,
          545.95,
          547.07,
          548.2,
          549.33,
          550.47,
          551.61,
          552.75,
          553.9,
          555.05,
          556.2,
          557.36,
          558.52,
          559.68,
          560.85,
          562.02,
          563.2,
          564.38,
          565.56,
          566.75,
          567.94,
          569.13,
          570.33,
          571.53,
          572.73,
          573.94,
          575.16,
          576.37,
          577.59,
          578.82,
          579.74,
          580.35,
          580.97,
          581.59,
          582.21,
          582.83,
          583.45,
          584.07,
          584.69,
          585.31,
          585.94,
          586.56,
          587.19,
          587.81,
          588.44,
          589.07,
          589.7,
          590.17,
          590.49,
          590.81,
          591.12,
          591.44,
          591.76,
          592.07,
          592.39,
          592.71,
          593.03,
          593.34,
          593.66,
          593.98,
          594.3,
          594.62,
          594.94,
          595.26,
          595.58,
          595.9,
          596.22,
          596.54,
          596.86,
          597.18,
          597.5,
          597.83,
          598.15,
          598.47,
          598.79,
          599.12,
          599.44,
          599.76,
          600.08,
          600.41,
          600.73,
          601.06,
          601.38,
          601.71,
          602.03,
          602.36,
          602.68,
          603.01,
          603.33,
          603.66,
          603.99,
          604.32,
          604.64,
          604.97,
          605.3,
          605.63,
          606.12,
          606.78,
          607.43,
          608.09,
          608.76,
          609.42,
          610.25,
          611.24,
          612.24,
          613.25,
          614.25,
          615.26,
          616.27,
          617.28,
          618.29,
          619.31,
          620.33,
          621.35,
          622.37,
          623.4,
          624.43,
          625.46,
          626.5,
          627.54,
          628.58,
          629.79,
          631.19,
          632.58,
          633.99,
          635.4,
          636.81,
          638.23,
          639.65,
          641.08,
          642.51,
          643.95,
          645.39,
          646.84,
          648.29,
          649.74,
          651.2,
          652.67,
          654.14,
          655.62,
          657.1,
          658.59,
          660.08,
          661.57,
          663.07,
          664.58,
          666.09,
          667.61,
          669.13,
          670.66,
          672.19,
          673.73,
          675.27,
          676.82,
          678.37,
          679.93,
          681.5,
          683.07,
          684.64,
          686.22,
          687.81,
          689.4,
          691.0,
          692.6,
          694.21,
          695.82,
          697.44,
          699.07,
          700.7,
          702.34,
          703.98,
          705.63,
          707.28,
          708.94,
          710.61,
          712.28,
          713.96,
          715.64,
          717.33,
          719.02,
          720.72,
          722.43,
          724.15,
          725.87,
          727.59,
          729.32,
          731.06,
          732.81,
          734.56,
          736.31,
          738.08,
          739.85,
          741.62,
          743.4,
          745.19,
          746.54,
          747.44,
          748.34,
          749.24,
          750.14,
          751.05,
          751.96,
          752.87,
          753.78,
          754.69,
          755.6,
          756.52,
          757.9,
          759.74,
          761.59,
          763.44,
          765.3,
          767.17,
          769.05,
          770.93,
          772.82,
          774.71,
          776.62,
          778.53,
          780.44,
          782.37,
          784.3,
          786.24,
          788.18,
          790.14,
          792.1,
          794.06,
          796.04,
          798.02,
          800.01,
          802.01,
          804.01,
          806.02,
          808.04,
          810.07,
          812.11,
          814.15,
          816.2,
          818.26,
          820.32,
          822.4,
          824.48,
          826.57,
          828.66,
          830.77,
          832.88,
          835.01,
          837.14,
          839.27,
          841.42,
          843.57,
          845.19,
          846.28,
          847.36,
          848.45,
          849.54,
          850.63,
          851.73,
          852.82,
          853.65,
          854.2,
          854.75,
          855.3,
          855.85,
          856.4,
          856.95,
          857.5,
          858.06,
          858.61,
          859.17,
          859.72,
          860.28,
          860.83,
          861.39,
          861.95,
          862.5,
          863.06,
          863.62,
          864.18,
          864.74,
          865.3,
          865.86,
          866.7,
          867.83,
          868.95,
          870.08,
          871.22,
          872.35,
          873.77,
          875.48,
          877.19,
          878.91,
          880.64,
          882.37,
          884.1,
          885.84,
          887.58,
          889.33,
          891.09,
          892.85,
          894.61,
          896.39,
          898.16,
          899.94,
          901.73,
          903.52,
          905.32,
          907.12,
          908.93,
          910.74,
          912.56,
          914.38,
          916.21,
          918.05,
          919.89,
          921.74,
          923.59,
          925.45,
          927.31,
          929.18,
          931.05,
          932.93,
          934.82,
          936.71,
          938.61,
          940.51,
          942.42,
          944.33,
          946.25,
          948.18,
          950.11,
          952.05,
          953.35,
          953.99,
          954.64,
          955.29,
          955.94,
          956.6,
          957.25,
          957.9,
          958.55,
          959.21,
          959.86,
          960.52,
          961.17,
          961.83,
          962.49,
          963.15,
          963.8,
          964.46,
          965.12,
          966.78,
          969.43,
          972.1,
          974.77,
          977.46,
          980.16,
          982.87,
          985.59,
          988.32,
          991.06,
          993.82,
          996.58,
          999.36,
          1002.1,
          1005.0,
          1007.8,
          1010.6,
          1013.4,
          1016.3,
          1019.1,
          1022.0,
          1024.9,
          1027.8,
          1030.7,
          1033.6,
          1036.6,
          1039.5,
          1042.5,
          1045.4,
          1048.4,
          1051.4,
          1054.4,
          1057.4,
          1060.5,
          1063.5,
          1066.6,
          1069.7,
          1072.8,
          1075.9,
          1079.0,
          1082.1,
          1085.3,
          1088.4,
          1090.8,
          1092.4,
          1094.0,
          1095.6,
          1097.2,
          1098.8,
          1100.4,
          1102.0,
          1103.6,
          1105.2,
          1106.8,
          1108.5,
          1110.1,
          1111.7,
          1113.4,
          1115.0,
          1116.6,
          1118.3,
          1119.9,
          1121.6,
          1123.2,
          1124.9,
          1126.6,
          1128.2,
          1129.9,
          1131.6,
          1133.3,
          1134.9,
          1136.6,
          1138.3,
          1140.0,
          1141.7,
          1143.4,
          1145.1,
          1146.8,
          1148.5,
          1150.3,
          1152.0,
          1153.7,
          1155.4,
          1157.2,
          1158.9,
          1160.6,
          1162.4,
          1164.1,
          1165.9,
          1167.6,
          1169.4,
          1171.2,
          1172.9,
          1174.7,
          1176.5,
          1178.3,
          1180.0,
          1181.8,
          1183.6,
          1185.4,
          1187.2,
          1189.0,
          1190.8,
          1192.6,
          1194.5,
          1196.3,
          1198.1,
          1199.9,
          1201.8,
          1203.6,
          1205.4,
          1207.3,
          1209.1,
          1211.0,
          1212.9,
          1214.7,
          1216.6,
          1218.5,
          1220.3,
          1222.2,
          1224.1,
          1226.0,
          1227.9,
          1229.8,
          1231.7,
          1233.6,
          1235.5,
          1237.4,
          1239.3,
          1241.3,
          1243.2,
          1245.1,
          1247.1,
          1249.0,
          1251.0,
          1252.9,
          1254.9,
          1256.8,
          1258.8,
          1260.8,
          1262.7,
          1264.7,
          1266.7,
          1268.2,
          1269.2,
          1270.2,
          1271.6,
          1272.2,
          1272.8,
          1273.4,
          1274.0,
          1274.6,
          1275.2,
          1275.8,
          1276.4,
          1277.0,
          1277.6,
          1278.2,
          1278.8,
          1279.4,
          1280.0,
          1280.6,
          1281.4,
          1282.4,
          1283.4,
          1284.4,
          1285.5,
          1286.5,
          1287.5,
          1289.0,
          1291.1,
          1291.9,
          1293.9,
          1296.0,
          1298.1,
          1300.1,
          1302.2,
          1304.3,
          1306.3,
          1308.4,
          1310.5,
          1312.6,
          1314.7,
          1316.8,
          1319.4,
          1322.6,
          1325.8,
          1329.0,
          1332.2,
          1335.4,
          1338.7,
          1341.9,
          1345.2,
          1348.4,
          1351.7,
          1355.0,
          1358.3,
          1361.6,
          1364.9,
          1368.3,
          1371.6,
          1375.0,
          1378.4,
          1381.8,
          1385.2,
          1388.6,
          1392.0,
          1395.4,
          1398.9,
          1402.4,
          1405.8,
          1409.3,
          1412.8,
          1416.3,
          1419.9,
          1423.4,
          1427.0,
          1430.5,
          1434.1,
          1437.7,
          1441.3,
          1445.0,
          1448.6,
          1452.2,
          1455.9,
          1459.6,
          1463.3,
          1467.0,
          1470.7,
          1474.5,
          1478.2,
          1482.0,
          1485.7,
          1489.5,
          1493.3,
          1497.2,
          1501.0,
          1504.9,
          1508.7,
          1512.6,
          1516.5,
          1520.4,
          1524.3,
          1528.3,
          1532.2,
          1536.2,
          1540.2,
          1544.2,
          1548.2,
          1552.3,
          1556.3,
          1560.4,
          1564.5,
          1568.6,
          1572.7,
          1576.8,
          1580.9,
          1585.1,
          1589.3,
          1593.5,
          1597.7,
          1601.9,
          1606.2,
          1610.4,
          1614.7,
          1618.3,
          1621.2,
          1624.1,
          1627.0,
          1629.8,
          1632.8,
          1635.7,
          1638.6,
          1641.5,
          1644.4,
          1647.4,
          1650.3,
          1653.3,
          1656.3,
          1659.2,
          1662.2,
          1665.2,
          1668.2,
          1671.2,
          1675.7,
          1681.8,
          1687.9,
          1694.0,
          1700.2,
          1706.4,
          1712.6,
          1718.9,
          1725.2,
          1731.5,
          1737.9,
          1744.3,
          1750.7,
          1757.2,
          1763.7,
          1770.3,
          1776.9,
          1783.5,
          1790.1,
          1796.8,
          1803.6,
          1810.3,
          1817.2,
          1824.0,
          1830.9,
          1837.8,
          1844.8,
          1851.8,
          1858.8,
          1865.9,
          1873.1,
          1880.2,
          1887.4,
          1894.7,
          1902.0,
          1909.3,
          1916.7,
          1924.1,
          1931.6,
          1939.1,
          1946.6,
          1954.2,
          1961.9,
          1969.5,
          1977.3,
          1985.1,
          1992.9,
          2000.7,
          2008.7,
          2016.6,
          2024.6,
          2032.7,
          2040.8,
          2048.9,
          2057.1,
          2065.4,
          2073.7,
          2082.1,
          2090.5,
          2098.9,
          2107.4,
          2116.0,
          2122.4,
          2126.7,
          2131.1,
          2135.4,
          2139.8,
          2144.1,
          2148.5,
          2152.9,
          2157.3,
          2161.8,
          2166.2,
          2170.7,
          2175.1,
          2179.6,
          2184.1,
          2188.6,
          2193.1,
          2197.7,
          2202.2,
          2206.8,
          2211.4,
          2216.0,
          2220.6,
          2225.2,
          2229.8,
          2234.5,
          2239.1,
          2243.8,
          2248.5,
          2253.2,
          2257.9,
          2262.7,
          2267.4,
          2272.2,
          2277.0,
          2281.8,
          2286.6,
          2291.4,
          2296.3,
          2301.1,
          2306.0,
          2310.9,
          2315.8,
          2320.7,
          2325.7,
          2330.6,
          2335.6,
          2340.6,
          2345.6,
          2350.6,
          2355.6,
          2360.7,
          2365.7,
          2370.8,
          2375.9,
          2381.0,
          2386.2,
          2391.3,
          2396.5,
          2401.7,
          2406.9,
          2412.1,
          2417.3,
          2422.6,
          2427.8,
          2433.1,
          2438.4,
          2443.7,
          2449.1,
          2454.4,
          2459.8,
          2465.2,
          2470.6,
          2476.0,
          2481.5,
          2486.9,
          2492.4,
          2497.9,
          2503.4,
          2509.0,
          2514.5,
          2520.1,
          2525.7,
          2531.3,
          2536.9,
          2542.6,
          2548.2,
          2553.9,
          2559.6,
          2565.3,
          2571.1,
          2576.8,
          2582.6,
          2588.4,
          2594.2,
          2600.1,
          2605.9,
          2611.8,
          2617.7,
          2623.6,
          2629.5,
          2635.5,
          2641.5,
          2647.5,
          2653.5,
          2659.5,
          2665.6,
          2671.7,
          2677.8,
          2683.9,
          2690.1,
          2696.2,
          2702.4,
          2708.6,
          2714.8,
          2721.1,
          2727.4,
          2733.7,
          2740.0,
          2746.3,
          2752.7,
          2759.1,
          2765.5,
          2771.9,
          2778.3,
          2784.8,
          2791.3,
          2797.8,
          2804.4,
          2810.9,
          2817.5,
          2824.1,
          2830.8,
          2837.4,
          2844.1,
          2850.8,
          2857.5,
          2864.3,
          2871.0,
          2877.8,
          2884.7,
          2891.5,
          2898.4,
          2905.3,
          2912.2,
          2919.2,
          2926.1,
          2933.1,
          2940.1,
          2947.2,
          2954.3,
          2961.4,
          2968.5,
          2975.6,
          2982.8,
          2990.0,
          2997.2,
          3004.5,
          3011.8,
          3019.1,
          3026.4,
          3033.8,
          3041.2,
          3048.6,
          3056.0,
          3063.5,
          3071.0,
          3078.5,
          3086.0,
          3093.6,
          3101.2,
          3108.9,
          3116.5,
          3124.2,
          3131.9,
          3139.7,
          3147.5,
          3155.3,
          3163.1,
          3171.0,
          3178.9,
          3186.8,
          3194.8,
          3202.7,
          3210.8,
          3218.8,
          3226.9,
          3235.0,
          3243.1,
          3251.3,
          3259.5,
          3267.7,
          3276.0,
          3284.3,
          3292.6,
          3300.9,
          3309.3,
          3317.7,
          3326.2,
          3334.7,
          3343.2,
          3351.7,
          3360.3,
          3368.9,
          3377.6,
          3386.3,
          3395.0,
          3403.7,
          3412.5,
          3421.3,
          3430.2,
          3439.0,
          3448.0,
          3456.9,
          3465.9,
          3474.9,
          3484.0,
          3493.1,
          3502.2,
          3511.4,
          3520.6,
          3529.8,
          3539.1,
          3548.4,
          3557.8,
          3567.2,
          3576.6,
          3586.0,
          3595.5,
          3605.1,
          3614.6,
          3624.3,
          3633.9,
          3643.6,
          3653.3,
          3663.1,
          3672.9,
          3682.8,
          3692.6,
          3702.6,
          3712.5,
          3722.5,
          3732.6,
          3742.7,
          3752.8,
          3763.0,
          3773.2,
          3783.4,
          3793.7,
          3804.1,
          3814.5,
          3824.9,
          3835.3,
          3845.9,
          3856.4,
          3867.0,
          3877.6,
          3888.3,
          3899.1,
          3909.8,
          3920.6,
          3931.5,
          3942.4,
          3953.4,
          3964.4,
          3975.4,
          3986.5,
          3997.6,
          4008.8,
          4020.1,
          4031.3,
          4042.7,
          4054.0,
          4065.5,
          4076.9,
          4088.5,
          4100.0,
          4111.6,
          4123.3,
          4135.0,
          4146.8,
          4158.6,
          4170.5,
          4182.4,
          4194.4,
          4206.4,
          4218.5,
          4230.6,
          4242.8,
          4255.0,
          4267.3,
          4279.6,
          4292.0,
          4304.5,
          4317.0,
          4329.5,
          4342.2,
          4354.8,
          4367.5,
          4380.3,
          4393.2,
          4406.0,
          4419.0,
          4432.0,
          4445.1,
          4458.2,
          4471.4,
          4484.6,
          4497.9,
          4511.2,
          4524.7,
          4538.1,
          4551.7,
          4565.3,
          4578.9,
          4592.6,
          4606.4,
          4620.3,
          4634.2,
          4648.1,
          4662.2,
          4676.3,
          4690.4,
          4704.7,
          4719.0,
          4733.3,
          4747.7,
          4762.2,
          4776.8,
          4791.4,
          4806.1,
          4820.8,
          4835.7,
          4850.6,
          4865.5,
          4880.6,
          4895.7,
          4910.8,
          4926.1,
          4941.4,
          4956.8,
          4972.2,
          4987.8,
          5003.4,
          5019.0,
          5034.8,
          5050.6,
          5066.5,
          5082.5,
          5098.6,
          5114.7,
          5130.9,
          5147.2,
          5163.5,
          5180.0,
          5196.5,
          5213.1,
          5229.8,
          5246.5,
          5263.4,
          5280.3,
          5297.3,
          5314.4,
          5331.5,
          5348.8,
          5366.1,
          5383.5,
          5401.0,
          5418.6,
          5436.3,
          5454.1,
          5471.9,
          5489.9,
          5507.9,
          5526.0,
          5544.2,
          5562.5,
          5580.9,
          5599.4,
          5618.0,
          5636.6,
          5655.4,
          5674.2,
          5693.2,
          5712.2,
          5731.4,
          5750.6,
          5769.9,
          5789.4,
          5808.9,
          5828.5,
          5848.3,
          5868.1,
          5888.0,
          5908.0,
          5928.2,
          5948.4,
          5968.8,
          5994.3,
          6025.2,
          6056.4,
          6087.8,
          6119.4,
          6151.3,
          6183.5,
          6215.8,
          6248.5,
          6281.4,
          6314.6,
          6348.0,
          6381.7,
          6415.7,
          6449.9,
          6484.4,
          6519.2,
          6554.3,
          6589.7,
          6625.3,
          6661.2,
          6697.5,
          6734.0,
          6770.9,
          6808.0,
          6845.4,
          6883.2,
          6921.3,
          6959.7,
          6998.4,
          7037.4,
          7076.8,
          7116.5,
          7156.5,
          7196.9,
          7237.6,
          7278.6,
          7320.1,
          7361.8,
          7404.0,
          7446.5,
          7489.3,
          7532.6,
          7576.2,
          7620.2,
          7664.6,
          7709.3,
          7754.5,
          7800.1,
          7846.0,
          7892.4,
          7939.2,
          7986.4,
          8034.1,
          8082.1,
          8130.6,
          8179.6,
          8229.0,
          8278.8,
          8329.1,
          8379.9,
          8431.1,
          8482.8,
          8535.0,
          8587.6,
          8640.8,
          8694.4,
          8775.9,
          8886.2,
          8998.7,
          9113.3,
          9230.2,
          9349.3,
          9470.7,
          9594.6,
          9720.8,
          9849.7,
          9981.1,
          10115.0,
          10252.0,
          10392.0,
          10534.0,
          10680.0,
          10828.0,
          10980.0,
          11135.0,
          11293.0,
          11454.0,
          11620.0,
          11788.0,
          11961.0,
          12137.0,
          12318.0,
          12502.0,
          12690.0,
          12883.0,
          13081.0,
          13283.0,
          13489.0,
          13701.0,
          13918.0,
          14139.0,
          14367.0,
          14600.0,
          14838.0,
          15083.0,
          15333.0,
          15590.0,
          15854.0,
          16124.0,
          16402.0,
          16686.0,
          16979.0,
          17279.0,
          17587.0,
          17904.0,
          18229.0,
          18563.0,
          18907.0,
          19260.0,
          19624.0,
          19998.0,
          20383.0,
          20779.0,
          21187.0,
          21823.0
        ],
        [
          3.6464,
          3.6469,
          3.6215,
          3.6286,
          3.691,
          3.6272,
          3.7258,
          3.5954,
          3.662,
          3.6659,
          3.6848,
          3.667,
          3.6342,
          3.6182,
          3.6675,
          3.6648,
          3.701,
          3.629,
          3.6687,
          3.6271,
          3.694,
          3.679,
          3.6429,
          3.5177,
          3.685,
          3.6403,
          3.636,
          3.6326,
          3.6305,
          3.6563,
          3.6504,
          3.6504,
          3.6925,
          3.6465,
          3.6412,
          3.6024,
          3.6751,
          3.6533,
          3.6345,
          3.6716,
          3.6523,
          3.6351,
          3.6549,
          3.6826,
          3.644,
          3.679,
          3.6263,
          3.6587,
          3.6374,
          3.6187,
          3.6198,
          3.6668,
          3.6537,
          3.689,
          3.6398,
          3.6623,
          3.6165,
          3.6483,
          3.6413,
          3.6232,
          3.6366,
          3.6454,
          3.6614,
          3.624,
          3.6406,
          3.6459,
          3.6404,
          3.6611,
          3.637,
          3.612,
          3.607,
          3.6167,
          3.6444,
          3.6693,
          3.6359,
          3.6083,
          3.636,
          3.6513,
          3.6143,
          3.6388,
          3.6583,
          3.6573,
          3.6417,
          3.6532,
          3.675,
          3.6377,
          3.6287,
          3.6193,
          3.6319,
          3.648,
          3.6715,
          3.6339,
          3.6202,
          3.6365,
          3.6336,
          3.6297,
          3.6279,
          3.6563,
          3.6276,
          3.6632,
          3.6393,
          3.6331,
          3.6449,
          3.6092,
          3.6635,
          3.6451,
          3.6372,
          3.6318,
          3.6567,
          3.6332,
          3.6379,
          3.644,
          3.6529,
          3.6631,
          3.6393,
          3.6386,
          3.6392,
          3.637,
          3.6452,
          3.6191,
          3.6439,
          3.6363,
          3.6626,
          3.6554,
          3.652,
          3.6262,
          3.6331,
          3.6531,
          3.6357,
          3.6704,
          3.643,
          3.6352,
          3.647,
          3.6595,
          3.6493,
          3.6238,
          3.6849,
          3.6562,
          3.6258,
          3.6509,
          3.6714,
          3.6539,
          3.6528,
          3.6235,
          3.6092,
          3.6591,
          3.636,
          3.5994,
          3.6175,
          3.6192,
          3.651,
          3.638,
          3.6003,
          3.6519,
          3.6526,
          3.6205,
          3.6591,
          3.6209,
          3.6517,
          3.6255,
          3.6371,
          3.6172,
          3.646,
          3.627,
          3.6194,
          3.6284,
          3.6659,
          3.6608,
          3.6282,
          3.6329,
          3.6375,
          3.6521,
          3.6323,
          3.624,
          3.6554,
          3.6538,
          3.665,
          3.6548,
          3.614,
          3.6329,
          3.6485,
          3.6201,
          3.6806,
          3.6107,
          3.6014,
          3.6329,
          3.6465,
          3.6455,
          3.6555,
          3.637,
          3.6503,
          3.6293,
          3.6624,
          3.6249,
          3.6353,
          3.6454,
          3.6627,
          3.6458,
          3.6321,
          3.6432,
          3.6158,
          3.614,
          3.619,
          3.6436,
          3.6226,
          3.6662,
          3.6259,
          3.6624,
          3.6865,
          3.6141,
          3.642,
          3.6482,
          3.6574,
          3.6404,
          3.6369,
          3.6077,
          3.6543,
          3.6348,
          3.6422,
          3.6444,
          3.6227,
          3.5947,
          3.6212,
          3.6737,
          3.6163,
          3.6505,
          3.633,
          3.6357,
          3.6437,
          3.6294,
          3.6131,
          3.6542,
          3.6086,
          3.6201,
          3.6132,
          3.6141,
          3.6179,
          3.6394,
          3.5749,
          3.6081,
          3.582,
          3.6099,
          3.6408,
          3.6077,
          3.6206,
          3.613,
          3.6798,
          3.6175,
          3.6142,
          3.6478,
          3.6969,
          3.6687,
          3.6132,
          3.5869,
          3.6244,
          3.6196,
          3.6396,
          3.6568,
          3.6063,
          3.6559,
          3.6326,
          3.5997,
          3.629,
          3.6573,
          3.6753,
          3.5834,
          3.6683,
          3.6647,
          3.7194,
          3.6655,
          3.725,
          3.5913,
          3.674,
          3.6793,
          3.7267,
          3.6982,
          3.6321,
          3.7117,
          3.7035,
          3.7019,
          3.7489,
          3.7948,
          3.765,
          3.8524,
          3.8563,
          4.0282,
          3.9588,
          4.1435,
          4.3076,
          4.4488,
          4.4123,
          4.5592,
          4.6136,
          4.8027,
          5.2034,
          5.286,
          5.7248,
          6.1031,
          6.8208,
          7.8606,
          11.369,
          8.7161,
          9.1728,
          10.079,
          13.333,
          12.839,
          14.779,
          14.487,
          18.257,
          24.218,
          26.758,
          31.44,
          35.791,
          33.866,
          29.462,
          42.211,
          41.479,
          45.405,
          48.347,
          54.128,
          56.085,
          61.991,
          67.867,
          65.314,
          69.719,
          83.347,
          94.09,
          86.174,
          100.5,
          106.97,
          112.94,
          112.87,
          135.03,
          132.41,
          135.58,
          128.33,
          133.73,
          125.34,
          120.31,
          118.05,
          100.78,
          100.41,
          88.311,
          83.809,
          82.778,
          81.268,
          64.793,
          72.175,
          59.981,
          53.609,
          54.185,
          47.93,
          43.472,
          39.968,
          37.125,
          41.218,
          33.18,
          29.561,
          30.87,
          32.397,
          19.258,
          20.225,
          22.863,
          23.248,
          19.683,
          18.129,
          14.655,
          12.972,
          14.743,
          11.526,
          7.3283,
          11.162,
          8.5938,
          8.2057,
          7.8804,
          8.4928,
          6.8555,
          8.1142,
          5.8662,
          5.5887,
          5.2392,
          5.1801,
          4.9622,
          4.8071,
          4.5991,
          4.5089,
          4.4841,
          4.3277,
          4.2852,
          4.1513,
          4.0895,
          4.056,
          3.9968,
          3.8956,
          3.9786,
          3.9412,
          3.9048,
          3.9046,
          3.9539,
          3.928,
          3.968,
          3.9088,
          3.9251,
          3.9886,
          4.0432,
          3.9958,
          4.0521,
          4.0035,
          4.1042,
          4.1556,
          4.0984,
          4.2729,
          4.3368,
          4.3613,
          4.4366,
          4.4972,
          4.7164,
          4.7416,
          4.8901,
          5.1112,
          5.2285,
          5.4799,
          5.772,
          6.2451,
          7.3395,
          7.6247,
          7.0401,
          7.5673,
          8.3121,
          8.1047,
          8.0538,
          8.6545,
          9.5338,
          9.2192,
          10.275,
          9.985,
          11.542,
          10.235,
          11.629,
          13.26,
          12.848,
          14.188,
          14.908,
          14.784,
          15.375,
          16.653,
          18.55,
          16.504,
          20.181,
          17.282,
          19.148,
          19.109,
          18.569,
          20.09,
          19.524,
          20.457,
          22.531,
          24.044,
          22.567,
          24.52,
          26.069,
          25.786,
          25.625,
          28.335,
          27.256,
          29.487,
          30.277,
          31.4,
          33.917,
          33.423,
          34.266,
          37.407,
          36.067,
          38.644,
          38.229,
          38.702,
          41.901,
          41.497,
          42.787,
          43.934,
          45.044,
          46.434,
          45.771,
          47.783,
          47.234,
          45.705,
          48.034,
          48.609,
          47.005,
          45.545,
          45.491,
          46.206,
          42.175,
          43.076,
          40.896,
          41.79,
          41.029,
          37.811,
          36.914,
          36.641,
          34.709,
          36.293,
          31.006,
          32.464,
          29.948,
          29.041,
          24.444,
          26.359,
          25.905,
          26.283,
          22.62,
          24.1,
          21.043,
          20.099,
          18.552,
          19.393,
          16.562,
          18.474,
          15.075,
          14.377,
          15.509,
          15.715,
          14.444,
          14.126,
          13.776,
          11.747,
          11.742,
          12.435,
          13.315,
          12.033,
          11.42,
          10.116,
          10.829,
          9.5206,
          8.502,
          7.6565,
          7.3374,
          6.7516,
          6.6044,
          6.2477,
          7.0752,
          5.3229,
          5.5999,
          5.9953,
          4.9699,
          5.6679,
          5.5568,
          4.7121,
          5.2772,
          4.475,
          4.2746,
          4.235,
          4.0464,
          4.0191,
          3.7445,
          3.9293,
          3.8074,
          3.6686,
          3.663,
          3.7456,
          3.6237,
          3.7127,
          3.649,
          3.6258,
          3.5961,
          3.5926,
          3.546,
          3.5248,
          3.4899,
          3.4648,
          3.5645,
          3.5958,
          3.6327,
          3.6583,
          3.6282,
          3.6606,
          3.6945,
          3.7145,
          3.7691,
          3.7686,
          3.7911,
          3.9048,
          3.941,
          4.0479,
          3.9979,
          4.0479,
          4.1761,
          4.2275,
          4.316,
          4.4244,
          4.5459,
          4.7051,
          4.783,
          4.8588,
          5.0097,
          5.1309,
          5.3091,
          5.4071,
          5.8966,
          5.979,
          6.5376,
          6.5279,
          7.2068,
          7.2227,
          7.7813,
          8.5549,
          9.2688,
          10.164,
          10.97,
          11.903,
          13.012,
          14.425,
          16.17,
          17.756,
          20.191,
          21.139,
          23.018,
          24.267,
          25.316,
          25.532,
          25.304,
          23.802,
          22.306,
          20.869,
          18.331,
          16.725,
          16.011,
          14.073,
          13.303,
          12.128,
          11.06,
          10.462,
          10.127,
          9.639,
          9.209,
          8.748,
          8.3296,
          7.8322,
          7.4613,
          7.098,
          6.8625,
          6.6463,
          6.5133,
          6.4282,
          6.2294,
          6.1195,
          5.9955,
          5.8593,
          5.8501,
          5.7362,
          5.644,
          5.6091,
          5.5238,
          5.4911,
          5.5045,
          5.3964,
          5.2453,
          5.2969,
          5.2658,
          5.1856,
          5.1243,
          5.0436,
          5.0366,
          4.9861,
          4.9551,
          4.9308,
          4.8741,
          4.8195,
          4.7863,
          4.7444,
          4.7173,
          4.6896,
          4.7073,
          4.6961,
          4.6635,
          4.61,
          4.5483,
          4.5236,
          4.5158,
          4.4929,
          4.4773,
          4.4143,
          4.3787,
          4.4169,
          4.3762,
          4.3256,
          4.2996,
          4.2441,
          4.2458,
          4.2515,
          4.2416,
          4.2178,
          4.192,
          4.2102,
          4.132,
          4.1575,
          4.0932,
          4.1573,
          4.1234,
          4.055,
          4.0784,
          4.0143,
          4.0541,
          4.0302,
          4.0253,
          4.0366,
          4.0173,
          4.0165,
          3.9998,
          3.9818,
          3.9595,
          3.9709,
          3.9177,
          3.9287,
          3.9559,
          3.938,
          3.9282,
          3.9287,
          3.9158,
          3.9306,
          3.9268,
          3.9052,
          3.8976,
          3.8998,
          3.9553,
          3.9011,
          3.9399,
          3.9386,
          3.9498,
          3.9141,
          3.9584,
          3.96,
          3.9419,
          3.988,
          3.9973,
          4.0681,
          4.0231,
          4.0666,
          4.0952,
          4.1049,
          4.1513,
          4.197,
          4.2258,
          4.2222,
          4.2785,
          4.3029,
          4.3334,
          4.3547,
          4.347,
          4.4265,
          4.4472,
          4.5036,
          4.501,
          4.5897,
          4.6155,
          4.6331,
          4.6808,
          4.7344,
          4.7997,
          4.8524,
          4.9478,
          5.0003,
          5.0503,
          5.0852,
          5.1533,
          5.254,
          5.323,
          5.3863,
          5.4728,
          5.5365,
          5.5902,
          5.6739,
          5.8094,
          5.8642,
          6.0002,
          6.0778,
          6.1766,
          6.2486,
          6.3326,
          6.3912,
          6.5135,
          6.5805,
          6.651,
          6.6825,
          6.7378,
          6.7718,
          6.8495,
          6.9272,
          6.9708,
          6.943,
          6.9966,
          6.9897,
          6.9932,
          6.9669,
          6.9595,
          6.8662,
          6.8351,
          6.78,
          6.7584,
          6.6953,
          6.691,
          6.6245,
          6.6672,
          6.6153,
          6.6432,
          6.6771,
          6.7312,
          6.817,
          6.9267,
          7.0956,
          7.2227,
          7.4537,
          7.6024,
          7.9298,
          8.2547,
          8.695,
          9.1022,
          9.7143,
          10.237,
          10.756,
          11.297,
          11.822,
          12.275,
          12.596,
          12.899,
          13.103,
          13.267,
          13.057,
          12.856,
          12.659,
          12.33,
          12.023,
          11.707,
          11.462,
          11.333,
          11.199,
          11.024,
          10.958,
          10.952,
          10.981,
          10.959,
          10.809,
          10.704,
          10.557,
          10.328,
          10.085,
          9.8057,
          9.6397,
          9.4074,
          9.3352,
          9.1936,
          9.12,
          9.012,
          8.9059,
          8.8054,
          8.7337,
          8.6862,
          8.7081,
          8.6423,
          8.6533,
          8.5623,
          8.5181,
          8.5256,
          8.4236,
          8.4632,
          8.4193,
          8.4436,
          8.4457,
          8.4569,
          8.4461,
          8.4864,
          8.4475,
          8.4122,
          8.4321,
          8.4305,
          8.5114,
          8.4711,
          8.4961,
          8.651,
          8.6371,
          8.4488,
          8.7619,
          8.6625,
          8.6383,
          8.803,
          8.726,
          9.3706,
          9.9787,
          9.9302,
          10.323,
          10.346,
          10.541,
          10.165,
          9.4905,
          8.9881,
          8.5053,
          8.828,
          8.8407,
          8.5872,
          8.5277,
          8.5762,
          8.2575,
          8.3636,
          8.4191,
          8.5365,
          8.4057,
          8.5649,
          8.1286,
          8.3959,
          8.308,
          8.3259,
          8.3505,
          8.3861,
          8.3191,
          8.3113,
          8.3611,
          8.3559,
          8.37,
          8.4548,
          8.4082,
          8.4082,
          8.4142,
          8.4397,
          8.3861,
          8.4061,
          8.3996,
          8.4225,
          8.4037,
          8.4052,
          8.3408,
          8.3931,
          8.3799,
          8.3832,
          8.3699,
          8.341,
          8.3218,
          8.3524,
          8.308,
          8.2598,
          8.2953,
          8.2649,
          8.2335,
          8.1929,
          8.1998,
          8.162,
          8.1946,
          8.053,
          8.2132,
          8.1363,
          8.1108,
          8.2398,
          8.1087,
          8.0365,
          8.1451,
          8.1766,
          8.0974,
          8.216,
          8.2969,
          8.188,
          8.1539,
          8.0955,
          8.1361,
          8.1504,
          8.1343,
          8.1987,
          8.2422,
          8.3225,
          8.3639,
          8.5999,
          8.7511,
          8.9984,
          8.8246,
          9.2536,
          9.6419,
          9.6988,
          10.563,
          10.67,
          11.384,
          11.59,
          12.338,
          12.581,
          12.547,
          12.767,
          12.381,
          11.652,
          10.977,
          10.658,
          10.26,
          10.1,
          9.7293,
          9.4944,
          9.2551,
          9.0174,
          8.9088,
          8.6231,
          8.6971,
          8.7246,
          8.6654,
          8.4626,
          8.2368,
          8.1811,
          8.1321,
          7.949,
          8.064,
          7.9933,
          7.8599,
          7.8404,
          7.7745,
          7.6599,
          7.6215,
          7.4933,
          7.5326,
          7.5009,
          7.4384,
          7.3379,
          7.3991,
          7.3283,
          7.2754,
          7.2412,
          7.2396,
          7.2182,
          7.2193,
          7.2228,
          7.2466,
          7.298,
          7.2339,
          7.3295,
          7.4054,
          7.4558,
          7.6145,
          7.6414,
          7.8263,
          7.9255,
          8.0522,
          8.3701,
          8.5514,
          8.8575,
          9.1632,
          9.5769,
          10.063,
          10.513,
          11.17,
          11.733,
          12.346,
          12.867,
          13.169,
          13.494,
          13.515,
          13.284,
          13.028,
          12.601,
          12.262,
          11.769,
          11.341,
          10.952,
          10.55,
          10.215,
          9.8636,
          9.5039,
          9.2559,
          9.0429,
          8.8156,
          8.6768,
          8.4485,
          8.184,
          7.8558,
          7.6775,
          7.5218,
          7.3695,
          7.266,
          7.1116,
          6.8971,
          6.7347,
          6.5812,
          6.4883,
          6.338,
          6.2349,
          6.1199,
          6.0486,
          5.9561,
          5.8447,
          5.795,
          5.7364,
          5.6627,
          5.5905,
          5.4962,
          5.4334,
          5.3586,
          5.2789,
          5.2342,
          5.2142,
          5.1313,
          5.1068,
          5.0663,
          5.0247,
          4.9143,
          4.9184,
          4.8976,
          4.8454,
          4.7936,
          4.7809,
          4.7629,
          4.6981,
          4.6103,
          4.6494,
          4.5947,
          4.5667,
          4.5339,
          4.5384,
          4.5019,
          4.4678,
          4.4986,
          4.5221,
          4.6068,
          4.8042,
          4.9886,
          5.2891,
          5.5463,
          5.9531,
          6.2946,
          6.5991,
          6.7887,
          6.9166,
          6.9816,
          6.8589,
          6.7758,
          6.7018,
          6.5901,
          6.5395,
          6.3326,
          6.2041,
          6.2277,
          6.0901,
          6.08,
          5.887,
          5.8366,
          5.7608,
          5.7247,
          5.6485,
          5.6111,
          5.5174,
          5.4818,
          5.4359,
          5.4468,
          5.3373,
          5.3007,
          5.2674,
          5.2615,
          5.2008,
          5.1704,
          5.1349,
          5.1379,
          5.0641,
          5.0544,
          5.0037,
          5.0312,
          4.9788,
          4.8996,
          4.9056,
          4.8839,
          4.8776,
          4.7867,
          4.8223,
          4.7997,
          4.7534,
          4.7451,
          4.6877,
          4.7064,
          4.6873,
          4.644,
          4.6272,
          4.6214,
          4.6011,
          4.5352,
          4.5399,
          4.558,
          4.5294,
          4.4974,
          4.4682,
          4.4419,
          4.4275,
          4.4326,
          4.4286,
          4.4167,
          4.3827,
          4.3118,
          4.3755,
          4.3326,
          4.2904,
          4.2696,
          4.2471,
          4.2502,
          4.2558,
          4.1901,
          4.2254,
          4.2292,
          4.1448,
          4.1883,
          4.2253,
          4.1396,
          4.1743,
          4.1829,
          4.1513,
          4.1569,
          4.1994,
          4.2073,
          4.2009,
          4.2455,
          4.2288,
          4.2753,
          4.3063,
          4.3294,
          4.3735,
          4.4568,
          4.5156,
          4.6074,
          4.69,
          4.7204,
          4.9118,
          4.9171,
          4.9442,
          5.0693,
          5.2128,
          5.3844,
          5.5872,
          5.6561,
          5.9252,
          6.2039,
          6.3425,
          6.7436,
          6.9888,
          7.1902,
          7.5991,
          7.9078,
          8.1886,
          8.7339,
          8.9239,
          9.1346,
          9.2679,
          9.2682,
          9.2659,
          9.2349,
          9.0837,
          8.8219,
          8.7346,
          8.3911,
          8.2576,
          7.8878,
          7.764,
          7.4124,
          7.216,
          7.1209,
          6.8963,
          6.6067,
          6.5755,
          6.3969,
          6.2594,
          6.0558,
          6.0082,
          5.764,
          5.7994,
          5.6794,
          5.5944,
          5.522,
          5.4555,
          5.3296,
          5.2165,
          5.0575,
          4.9522,
          4.9419,
          4.8139,
          4.7426,
          4.6836,
          4.5775,
          4.5891,
          4.5922,
          4.5585,
          4.6485,
          4.6666,
          4.7506,
          5.0332,
          4.9554,
          4.7861,
          4.5521,
          4.4136,
          4.3246,
          4.1916,
          4.226,
          4.1568,
          4.1077,
          4.0842,
          4.1082,
          4.0013,
          3.9625,
          3.9546,
          3.9543,
          3.8911,
          3.8972,
          3.9079,
          3.8959,
          3.8446,
          3.8462,
          3.7682,
          3.7852,
          3.8094,
          3.7505,
          3.7117,
          3.7434,
          3.738,
          3.6631,
          3.7014,
          3.6897,
          3.5988,
          3.6204,
          3.5982,
          3.5896,
          3.6035,
          3.5686,
          3.5931,
          3.5543,
          3.5452,
          3.5199,
          3.529,
          3.4845,
          3.5001,
          3.4685,
          3.5147,
          3.4757,
          3.4587,
          3.4171,
          3.4274,
          3.4415,
          3.4171,
          3.4345,
          3.4228,
          3.4365,
          3.4224,
          3.4175,
          3.4454,
          3.4516,
          3.4082,
          3.4204,
          3.4587,
          3.4587,
          3.5333,
          3.5628,
          3.6006,
          3.6908,
          3.7598,
          3.8288,
          3.9496,
          4.0129,
          4.0853,
          4.1486,
          4.1949,
          4.2949,
          4.3829,
          4.4537,
          4.5086,
          4.589,
          4.6742,
          4.6888,
          4.7832,
          4.7922,
          4.8244,
          4.8264,
          4.8817,
          5.0057,
          4.9838,
          5.0242,
          4.9258,
          4.8424,
          4.8403,
          4.7365,
          4.7636,
          4.7024,
          4.6819,
          4.6298,
          4.5777,
          4.5468,
          4.5096,
          4.4508,
          4.501,
          4.4366,
          4.4427,
          4.4393,
          4.4143,
          4.4086,
          4.4287,
          4.422,
          4.4589,
          4.5198,
          4.5236,
          4.6088,
          4.6194,
          4.6942,
          4.7628,
          4.8091,
          4.7652,
          4.8226,
          4.778,
          4.7434,
          4.6557,
          4.5761,
          4.5115,
          4.475,
          4.3576,
          4.3054,
          4.2586,
          4.1531,
          4.1794,
          4.1349,
          4.0979,
          4.0542,
          4.0286,
          4.0114,
          4.0051,
          3.9583,
          3.9776,
          3.9215,
          3.8884,
          3.9261,
          3.9945,
          4.026,
          4.0678,
          4.1188,
          4.1991,
          4.3248,
          4.4404,
          4.588,
          4.7404,
          4.9849,
          5.1327,
          5.4025,
          5.66,
          6.1005,
          6.325,
          6.4875,
          6.5011,
          6.3473,
          6.0229,
          5.6312,
          5.2499,
          5.0295,
          4.7646,
          4.5575,
          4.4306,
          4.277,
          4.243,
          4.2068,
          4.0121,
          3.9353,
          3.9025,
          3.8153,
          3.8815,
          3.7893,
          3.7707,
          3.7294,
          3.7667,
          3.7561,
          3.7049,
          3.7369,
          3.6939,
          3.6931,
          3.7277,
          3.7101,
          3.688,
          3.6508,
          3.7135,
          3.776,
          3.7747,
          3.7262,
          3.8046,
          3.779,
          3.8683,
          3.8678,
          3.8861,
          3.8996,
          3.9043,
          4.0165,
          4.044,
          4.1018,
          4.1069,
          4.1694,
          4.1773,
          4.2859,
          4.2862,
          4.3643,
          4.4165,
          4.4711,
          4.4844,
          4.4816,
          4.4644,
          4.4191,
          4.3771,
          4.3056,
          4.2475,
          4.2177,
          4.1764,
          4.1449,
          4.0749,
          4.1191,
          3.9571,
          4.0826,
          4.0913,
          3.9527,
          4.1094,
          4.1231,
          4.2019,
          4.1502,
          4.0578,
          3.9855,
          3.8629,
          3.7947,
          3.7737,
          3.7555,
          3.7999,
          3.6848,
          3.8078,
          3.6276,
          3.5745,
          3.4916,
          3.4617,
          3.3862,
          3.3633,
          3.3415,
          3.3153,
          3.2523,
          3.2477,
          3.2018,
          3.1658,
          3.1649,
          3.1398,
          3.1762,
          3.114,
          3.1586,
          3.1195,
          3.1045,
          3.0933,
          3.1487,
          3.1161,
          3.0767,
          3.0858,
          3.0978,
          3.1256,
          3.0925,
          3.1009,
          3.0895,
          3.0758,
          3.087,
          3.082,
          3.0999,
          3.1009,
          3.1129,
          3.0837,
          3.1024,
          3.0866,
          3.1162,
          3.1375,
          3.1487,
          3.1749,
          3.1735,
          3.2092,
          3.2486,
          3.2854,
          3.348,
          3.3736,
          3.4243,
          3.5035,
          3.5525,
          3.5938,
          3.7187,
          3.934,
          4.1545,
          4.3555,
          4.4702,
          4.3457,
          4.2319,
          3.905,
          3.8081,
          3.6982,
          3.5547,
          3.5198,
          3.4179,
          3.363,
          3.3336,
          3.2571,
          3.2219,
          3.1743,
          3.1515,
          3.1172,
          3.0795,
          3.0751,
          2.9724,
          2.9369,
          3.0331,
          2.9511,
          2.9348,
          2.9137,
          2.9573,
          2.9739,
          3.0434,
          3.0736,
          3.0926,
          3.1942,
          3.2111,
          3.3136,
          3.3892,
          3.4417,
          3.475,
          3.5848,
          3.6229,
          3.7026,
          3.7728,
          3.7112,
          3.8182,
          3.7973,
          3.8778,
          3.9308,
          3.9155,
          3.9332,
          4.0281,
          4.0186,
          4.0004,
          4.0245,
          4.0705,
          4.1099,
          4.122,
          4.0942,
          4.1359,
          4.1629,
          4.1334,
          4.1201,
          4.0985,
          4.0772,
          4.0458,
          4.0699,
          4.1009,
          4.1191,
          4.1279,
          4.2143,
          4.3511,
          4.4345,
          4.6082,
          4.7215,
          4.7772,
          4.7375,
          4.6835,
          4.5973,
          4.6486,
          4.5401,
          4.556,
          4.5148,
          4.5438,
          4.4446,
          4.4266,
          4.37,
          4.3016,
          4.2262,
          4.0895,
          4.023,
          3.9359,
          3.8973,
          3.7708,
          3.8569,
          3.9977,
          3.7471,
          4.3642,
          4.6744,
          5.2152,
          5.3395,
          5.5592,
          5.3739,
          5.023,
          5.2191,
          4.2997,
          4.2753,
          4.1464,
          4.352,
          4.2619,
          4.1622,
          4.0472,
          3.7132,
          3.9402,
          4.0199,
          4.0091,
          3.9246,
          3.8508,
          4.0023,
          4.1357,
          4.2398,
          4.4004,
          4.4845,
          4.5167,
          4.3999,
          4.382,
          4.2301,
          4.1606,
          4.0174,
          3.9868,
          3.9745,
          3.9016,
          3.8528,
          3.8551,
          3.7901,
          3.7684,
          3.77,
          3.7166,
          3.6908,
          3.6677,
          3.6194,
          3.5526,
          3.5246,
          3.5429,
          3.45,
          3.3983,
          3.4025,
          3.3441,
          3.2971,
          3.2883,
          3.2331,
          3.2468,
          3.2091,
          3.1687,
          3.1298,
          3.1282,
          3.0707,
          3.0937,
          3.0469,
          3.0571,
          3.0081,
          3.0364,
          3.013,
          3.0071,
          2.9808,
          2.9599,
          2.9307,
          2.9697,
          2.9186,
          2.9179,
          2.9083,
          2.9707,
          2.9917,
          2.9766,
          3.0321,
          3.0638,
          3.0435,
          2.9391,
          2.9656,
          2.9754,
          2.9831,
          2.9939,
          3.0332,
          3.0408,
          3.0852,
          3.1595,
          3.1905,
          3.2012,
          3.2295,
          3.2854,
          3.3583,
          3.3859,
          3.3865,
          3.4708,
          3.4715,
          3.5011,
          3.4966,
          3.4857,
          3.5259,
          3.5168,
          3.4581,
          3.4941,
          3.5145,
          3.5835,
          3.6388,
          3.6497,
          3.7572,
          3.7632,
          3.7886,
          3.7517,
          3.7265,
          3.7333,
          3.7527,
          3.7173,
          3.7038,
          3.7045,
          3.6895,
          3.7527,
          3.6077,
          3.6824,
          3.7427,
          3.8263,
          4.0334,
          4.1809,
          4.3818,
          4.3625,
          4.1643,
          3.9073,
          3.7515,
          3.6822,
          3.5122,
          3.4868,
          3.4026,
          3.3392,
          3.2798,
          3.1986,
          3.1304,
          3.0903,
          3.0672,
          3.0981,
          3.0919,
          3.0265,
          3.0106,
          2.9886,
          2.923,
          2.9169,
          2.9118,
          2.872,
          2.8585,
          2.812,
          2.8022,
          2.8223,
          2.7345,
          2.7312,
          2.6787,
          2.6516,
          2.661,
          2.6499,
          2.6211,
          2.6097,
          2.5875,
          2.5726,
          2.5782,
          2.58,
          2.5338,
          2.5537,
          2.5731,
          2.6472,
          2.7208,
          2.8533,
          2.9873,
          3.1288,
          3.2223,
          3.2887,
          3.4168,
          3.461,
          3.5711,
          3.6508,
          3.7068,
          3.6691,
          3.6019,
          3.4641,
          3.3775,
          3.2536,
          3.1079,
          3.0702,
          2.9858,
          2.9031,
          2.8468,
          2.7766,
          2.817,
          2.7238,
          2.679,
          2.6589,
          2.6099,
          2.6381,
          2.6652,
          2.5608,
          2.5622,
          2.5523,
          2.5398,
          2.5122,
          2.5512,
          2.5004,
          2.5324,
          2.5655,
          2.5418,
          2.4762,
          2.47,
          2.449,
          2.3798,
          2.4047,
          2.3996,
          2.4438,
          2.4702,
          2.4821,
          2.5518,
          2.6572,
          2.6787,
          2.8859,
          2.9655,
          3.181,
          3.2807,
          3.2171,
          3.1114,
          3.0004,
          2.9537,
          2.9404,
          3.0064,
          2.9646,
          2.9693,
          2.895,
          2.8018,
          2.7381,
          2.788,
          2.7012,
          2.6881,
          2.6408,
          2.6062,
          2.422,
          2.3741,
          2.4179,
          2.4402,
          2.5177,
          2.4824,
          2.5075,
          2.5049,
          2.4733,
          2.5167,
          2.4972,
          2.5282,
          2.4958,
          2.57,
          2.598,
          2.5872,
          2.6311,
          2.6977,
          2.6751,
          2.6901,
          2.7461,
          2.7786,
          2.8722,
          2.9213,
          2.9399,
          2.9885,
          2.9778,
          3.0618,
          3.0388,
          3.0102,
          3.0575,
          2.9952,
          3.0263,
          3.081,
          3.1324,
          3.1522,
          3.1401,
          3.1968,
          3.2346,
          3.25,
          3.2326,
          3.207,
          3.1903,
          3.173,
          3.1554,
          3.0629,
          3.0893,
          3.0774,
          3.0675,
          3.0011,
          2.9706,
          2.9546,
          2.9858,
          3.0239,
          2.9337,
          2.9735,
          2.9246,
          2.865,
          2.8077,
          2.86,
          2.8063,
          2.9052,
          2.8668,
          2.8855,
          2.9102,
          2.9135,
          2.9108,
          2.8859,
          2.8226,
          2.8397,
          2.8021,
          2.7888,
          2.688,
          2.6767,
          2.6196,
          2.6695,
          2.556,
          2.596,
          2.5759,
          2.5347,
          2.4874,
          2.5746,
          2.5769,
          2.5508,
          2.5026,
          2.5052,
          2.4782,
          2.4968,
          2.5231,
          2.5203,
          2.4729,
          2.5011,
          2.3709,
          2.4249,
          2.3859,
          2.4426,
          2.3712,
          2.3746,
          2.3153,
          2.337,
          2.3596,
          2.2912,
          2.263,
          2.2532,
          2.3472,
          2.2703,
          2.2326,
          2.1887,
          2.1651,
          2.1612,
          2.113,
          2.1067,
          2.1348,
          2.1204,
          2.2435,
          2.2856,
          2.2701,
          2.4067,
          2.3799,
          2.5777,
          2.5798,
          2.555,
          2.4254,
          2.2889,
          2.1199,
          2.1172,
          2.197,
          2.2797,
          2.3068,
          2.4729,
          2.4118,
          2.3075,
          2.2869,
          2.183,
          2.1764,
          2.1034,
          2.0209,
          2.0827,
          2.0818,
          2.1322,
          2.071,
          2.1582,
          2.19,
          2.2178,
          2.2415,
          2.2234,
          2.2081,
          2.193,
          2.1263,
          2.1107,
          2.0886,
          2.0346,
          1.9541,
          1.9537,
          1.9113,
          1.9391,
          1.8617,
          1.8628,
          1.9051,
          1.9503,
          2.0166,
          1.9799,
          2.1079,
          2.22,
          2.3651,
          2.4261,
          2.4281,
          2.3937,
          2.2913,
          2.126,
          2.0193,
          2.0706,
          2.0174,
          2.0695,
          2.22,
          2.1537,
          1.966,
          1.8954,
          1.807,
          1.9343,
          1.9979,
          2.0478,
          2.1903,
          2.2669,
          2.2308,
          2.2266,
          2.201,
          2.2482,
          2.2622,
          2.329,
          2.3232,
          2.2986,
          2.1251,
          2.0388,
          1.8766,
          1.7267,
          1.7151,
          1.7393,
          1.7332,
          1.7728,
          1.8684,
          1.9716,
          2.0153,
          1.9756,
          2.0442,
          2.0207,
          2.0522,
          1.9942,
          2.0258,
          1.9503,
          1.908,
          1.9154,
          1.8743,
          1.9029,
          1.8928,
          1.9781,
          1.9951,
          1.9844,
          1.9562,
          1.9963,
          1.9071,
          1.8414,
          1.7935,
          1.7744,
          1.7585,
          1.7587,
          1.8439,
          1.8423,
          1.8465,
          1.9138,
          2.0044,
          1.9992,
          2.0698,
          2.065,
          2.0596,
          2.0213,
          1.894,
          1.8923,
          1.8904,
          1.8312,
          1.7663,
          1.747,
          1.7441,
          1.9074,
          2.0443,
          2.2635,
          2.3471,
          2.3373,
          2.3013,
          2.252,
          2.1412,
          2.0455,
          1.8924,
          1.9271,
          1.9628,
          2.001,
          2.1084,
          2.1032,
          2.0731,
          2.0261,
          2.1289,
          2.1343,
          2.1685,
          2.2227,
          2.2462,
          2.2362,
          2.1679,
          2.1784,
          2.1982,
          2.197,
          2.1199,
          2.0949,
          2.0536,
          2.1129,
          2.0771,
          1.9564,
          1.9408,
          2.0075,
          2.046,
          1.931,
          1.9067,
          1.8003,
          1.7703,
          1.7845,
          1.8489,
          1.8147,
          1.8337,
          1.8452,
          1.7788,
          1.7907,
          1.7773,
          1.8446,
          1.8528,
          1.878,
          1.8322,
          1.8072,
          1.6824,
          1.6268,
          1.5922,
          1.6592,
          1.6871,
          1.7523,
          1.6923,
          1.7722,
          1.7936,
          1.8366,
          1.8616,
          1.8797,
          1.8142,
          1.8655,
          1.8659,
          1.8508,
          1.8392,
          1.7373,
          1.7593,
          1.789,
          1.7234,
          1.6737,
          1.6948,
          1.7378,
          1.8026,
          1.7408,
          1.7999,
          1.8712,
          1.8813,
          1.923,
          1.9394,
          1.9424,
          1.9022,
          1.9281,
          1.9406,
          1.9013,
          1.9065,
          1.8334,
          1.8495,
          1.8533,
          1.8185,
          1.8529,
          1.7958,
          1.8405,
          1.9179,
          1.9643,
          1.9423,
          1.9414,
          1.9358,
          1.9441,
          1.8872,
          1.8561,
          1.82,
          1.8772,
          1.9325,
          1.8804,
          1.8033,
          1.6827,
          1.712,
          1.6655,
          1.6475,
          1.7286,
          1.8034,
          1.7167,
          1.7976,
          1.7118,
          1.6306,
          1.5835,
          1.6299,
          1.632,
          1.6032,
          1.5698,
          1.5929,
          1.5783,
          1.6434,
          1.704,
          1.6947,
          1.6554,
          1.5611,
          1.4722,
          1.4175,
          1.4321,
          1.4715,
          1.5989,
          1.5698,
          1.5704,
          1.592,
          1.5743,
          1.64,
          1.6763,
          1.7586,
          1.7446,
          1.7468,
          1.7679,
          1.7183,
          1.7042,
          1.7123,
          1.7343,
          1.7212,
          1.7471,
          1.7614,
          1.7705,
          1.7396,
          1.7002,
          1.7208,
          1.7619,
          1.7039,
          1.6369,
          1.6163,
          1.6741,
          1.6749,
          1.668,
          1.6616,
          1.6775,
          1.6897,
          1.7131,
          1.741,
          1.7204,
          1.7384,
          1.6926,
          1.6754,
          1.6559,
          1.6512,
          1.6563,
          1.7655,
          1.7817,
          1.7737,
          1.6924,
          1.7546,
          1.7099,
          1.7395,
          1.7212,
          1.6761,
          1.6719,
          1.7063,
          1.7226,
          1.7443,
          1.7535,
          1.8004,
          1.7655,
          1.765,
          1.7132,
          1.7172,
          1.7389,
          1.7796,
          1.7228,
          1.7434,
          1.7049,
          1.7427,
          1.774,
          1.7534,
          1.7047,
          1.7078,
          1.7493,
          1.7671,
          1.7768,
          1.7587,
          1.7491,
          1.7342,
          1.7677,
          1.7093,
          1.7855,
          1.7622,
          1.8003,
          1.7973,
          1.8276,
          1.8155,
          1.8028,
          1.8299,
          1.7867,
          1.7948,
          1.7971,
          1.792,
          1.7875,
          1.8022,
          1.7991,
          1.7963,
          1.7812,
          1.798,
          1.8137,
          1.8045,
          1.8181,
          1.8391,
          1.8319
        ],
        [
          0.04224,
          0.038652,
          0.035456,
          0.032307,
          0.029529,
          0.030982,
          0.050743,
          0.049391,
          0.048364,
          0.04746,
          0.046365,
          0.045287,
          0.044252,
          0.043223,
          0.042268,
          0.041298,
          0.040305,
          0.039455,
          0.038385,
          0.037684,
          0.036697,
          0.035823,
          0.035015,
          0.034119,
          0.033434,
          0.032605,
          0.031887,
          0.031107,
          0.030356,
          0.029603,
          0.028945,
          0.028241,
          0.027587,
          0.026897,
          0.026252,
          0.025592,
          0.024981,
          0.024384,
          0.023757,
          0.023224,
          0.022648,
          0.022039,
          0.021498,
          0.020942,
          0.020413,
          0.019892,
          0.019379,
          0.018885,
          0.0184,
          0.017926,
          0.017473,
          0.017009,
          0.016557,
          0.016121,
          0.01569,
          0.015268,
          0.01485,
          0.014442,
          0.014044,
          0.013674,
          0.013287,
          0.012929,
          0.01256,
          0.012198,
          0.011856,
          0.011514,
          0.011167,
          0.010847,
          0.010522,
          0.020517,
          0.020377,
          0.020222,
          0.020063,
          0.019884,
          0.019759,
          0.019585,
          0.019435,
          0.019285,
          0.019146,
          0.018993,
          0.018822,
          0.018675,
          0.018517,
          0.018313,
          0.018161,
          0.017991,
          0.017876,
          0.017724,
          0.017628,
          0.017493,
          0.01738,
          0.01723,
          0.017092,
          0.016965,
          0.016817,
          0.016684,
          0.016556,
          0.016435,
          0.016285,
          0.016154,
          0.016007,
          0.015874,
          0.015738,
          0.015611,
          0.015507,
          0.015356,
          0.015203,
          0.015075,
          0.01495,
          0.014814,
          0.014694,
          0.014561,
          0.014449,
          0.014338,
          0.014286,
          0.014366,
          0.014107,
          0.013827,
          0.013677,
          0.013532,
          0.013386,
          0.015253,
          0.018609,
          0.018516,
          0.018397,
          0.018319,
          0.018226,
          0.018128,
          0.018051,
          0.017958,
          0.017879,
          0.017771,
          0.017684,
          0.017739,
          0.017505,
          0.017409,
          0.017329,
          0.017212,
          0.017134,
          0.017048,
          0.016946,
          0.016861,
          0.016775,
          0.016664,
          0.016578,
          0.016514,
          0.016395,
          0.016314,
          0.016216,
          0.016114,
          0.016021,
          0.015927,
          0.015837,
          0.015763,
          0.01573,
          0.01557,
          0.015421,
          0.015301,
          0.015019,
          0.014923,
          0.014996,
          0.014946,
          0.014887,
          0.016341,
          0.020704,
          0.02062,
          0.020545,
          0.0211,
          0.020529,
          0.020425,
          0.020355,
          0.020272,
          0.020224,
          0.020151,
          0.020076,
          0.020124,
          0.020095,
          0.019915,
          0.019862,
          0.019789,
          0.019706,
          0.019655,
          0.01958,
          0.019821,
          0.019415,
          0.019285,
          0.01919,
          0.018933,
          0.018835,
          0.018785,
          0.018745,
          0.018812,
          0.018635,
          0.018623,
          0.01878,
          0.018447,
          0.018388,
          0.018295,
          0.018159,
          0.01814,
          0.018033,
          0.017952,
          0.017853,
          0.017735,
          0.017683,
          0.018676,
          0.024646,
          0.024585,
          0.024541,
          0.024569,
          0.024416,
          0.024294,
          0.024195,
          0.025721,
          0.024409,
          0.024081,
          0.024034,
          0.023979,
          0.023879,
          0.023852,
          0.023745,
          0.023655,
          0.023629,
          0.023548,
          0.023399,
          0.023398,
          0.023347,
          0.023327,
          0.023179,
          0.023411,
          0.023116,
          0.022988,
          0.022885,
          0.022856,
          0.02261,
          0.02263,
          0.02261,
          0.022542,
          0.022376,
          0.022365,
          0.022201,
          0.022072,
          0.021974,
          0.02194,
          0.021676,
          0.021846,
          0.021713,
          0.022,
          0.030343,
          0.030139,
          0.030087,
          0.030002,
          0.02991,
          0.029717,
          0.029669,
          0.029639,
          0.029554,
          0.029571,
          0.030868,
          0.02938,
          0.02922,
          0.02919,
          0.029111,
          0.028958,
          0.028978,
          0.028905,
          0.028831,
          0.028823,
          0.028669,
          0.039442,
          0.03923,
          0.039117,
          0.039148,
          0.039136,
          0.03887,
          0.038491,
          0.038762,
          0.038865,
          0.038746,
          0.038585,
          0.038781,
          0.038704,
          0.038617,
          0.038683,
          0.038679,
          0.038921,
          0.038825,
          0.038728,
          0.061444,
          0.061714,
          0.062105,
          0.062495,
          0.063733,
          0.070847,
          0.064376,
          0.063939,
          0.064725,
          0.065752,
          0.067791,
          1.4359,
          1.6146,
          1.693,
          1.4783,
          1.4192,
          1.7139,
          1.4901,
          1.4113,
          1.6269,
          1.5341,
          1.7405,
          1.5557,
          3.2786,
          2.9673,
          2.9736,
          3.2306,
          3.3278,
          2.8189,
          3.0026,
          3.1644,
          3.417,
          3.3142,
          3.0234,
          2.9297,
          3.6708,
          5.5954,
          3.8898,
          5.7455,
          6.0575,
          5.0751,
          4.7512,
          5.2393,
          6.4251,
          6.3876,
          6.4194,
          6.0327,
          5.3359,
          5.2741,
          5.7111,
          4.8033,
          4.8766,
          6.9709,
          5.4836,
          4.2424,
          5.6962,
          4.6001,
          4.8011,
          4.7848,
          3.9106,
          3.5821,
          3.8493,
          3.2856,
          3.0521,
          2.8937,
          2.6901,
          2.5605,
          3.1664,
          3.3862,
          2.8423,
          2.7606,
          2.4723,
          3.2072,
          2.5486,
          2.5251,
          2.963,
          1.6145,
          1.3973,
          1.6084,
          1.2867,
          1.3488,
          1.2385,
          1.8871,
          1.507,
          1.3316,
          1.4011,
          1.3683,
          0.96122,
          0.90093,
          0.83416,
          0.063675,
          0.062829,
          0.062163,
          0.061685,
          0.061541,
          0.060949,
          0.062274,
          0.061126,
          0.060599,
          0.038013,
          0.043452,
          0.038569,
          0.037178,
          0.037152,
          0.036914,
          0.036839,
          0.037059,
          0.037275,
          0.037622,
          0.038124,
          0.03884,
          0.039487,
          0.039537,
          0.03903,
          0.039209,
          0.037832,
          0.037472,
          0.037596,
          0.036584,
          0.036018,
          0.036108,
          0.036051,
          0.046498,
          0.047118,
          0.048928,
          0.05079,
          0.050781,
          0.049958,
          0.049292,
          0.049007,
          0.048945,
          0.04904,
          0.04875,
          0.049214,
          0.049689,
          0.050085,
          0.68106,
          0.62527,
          0.65604,
          0.70823,
          0.65334,
          0.67441,
          0.68396,
          0.66304,
          0.66119,
          0.66744,
          0.67412,
          0.63464,
          0.64265,
          0.5961,
          0.67077,
          0.62199,
          0.62412,
          0.64268,
          1.9802,
          1.1395,
          1.1862,
          1.1564,
          1.0464,
          1.1709,
          1.3861,
          1.3666,
          1.2327,
          1.3083,
          1.2015,
          1.2232,
          1.169,
          1.2723,
          1.2536,
          1.1812,
          1.1712,
          1.2332,
          1.2517,
          1.2299,
          1.2131,
          1.1577,
          1.1373,
          1.2184,
          1.2362,
          1.311,
          1.2938,
          1.2093,
          1.1336,
          1.2071,
          1.1678,
          1.2467,
          1.284,
          1.4617,
          1.3164,
          1.2757,
          1.2548,
          1.5505,
          1.3743,
          1.3307,
          1.3355,
          1.256,
          1.1516,
          1.5829,
          1.5082,
          1.299,
          1.3303,
          1.3395,
          1.301,
          1.2923,
          1.4474,
          1.3518,
          1.3097,
          1.3368,
          1.2206,
          1.2146,
          1.1861,
          1.1798,
          1.1009,
          1.3617,
          1.2473,
          1.207,
          1.2398,
          1.1361,
          1.125,
          1.0553,
          1.119,
          1.0447,
          1.1121,
          1.1116,
          1.0904,
          1.0056,
          1.0957,
          1.0352,
          1.1306,
          1.1477,
          1.2104,
          1.2372,
          1.1072,
          1.0062,
          0.98634,
          1.1298,
          1.0608,
          1.1819,
          1.0761,
          1.0717,
          1.0137,
          0.99801,
          0.93812,
          0.54387,
          0.52277,
          0.73764,
          0.58319,
          0.61911,
          0.55366,
          0.56091,
          0.56343,
          0.54166,
          0.54474,
          0.53561,
          0.48959,
          0.53902,
          0.52648,
          0.51699,
          0.52441,
          0.38815,
          0.37683,
          0.076954,
          0.07877,
          0.078933,
          0.078921,
          0.076291,
          0.074274,
          0.071721,
          0.080175,
          0.07565,
          0.077198,
          0.072025,
          0.080007,
          0.075004,
          0.070932,
          0.04107,
          0.039272,
          0.039463,
          0.037409,
          0.036086,
          0.036606,
          0.036553,
          0.035903,
          0.045145,
          0.046834,
          0.049008,
          0.047349,
          0.047562,
          0.047155,
          0.047321,
          0.045234,
          0.045765,
          0.045396,
          0.044756,
          0.043876,
          0.043791,
          0.043315,
          0.0436,
          0.042141,
          0.042357,
          0.043917,
          0.041768,
          0.042691,
          0.041055,
          0.051245,
          0.054412,
          0.051906,
          0.051196,
          0.050126,
          0.051183,
          0.19609,
          0.19036,
          0.19803,
          0.19244,
          0.19167,
          0.19297,
          0.19385,
          0.18722,
          0.19907,
          0.18901,
          0.1891,
          0.18767,
          0.18889,
          0.18536,
          0.18292,
          0.18719,
          0.18853,
          0.18994,
          0.19011,
          0.19155,
          0.19777,
          0.18978,
          0.19433,
          0.18978,
          0.18936,
          0.18839,
          0.18667,
          0.1832,
          0.17938,
          0.17834,
          0.17301,
          0.16742,
          0.049637,
          0.047473,
          0.044674,
          0.042696,
          0.042924,
          0.038717,
          0.037696,
          0.03264,
          0.030526,
          0.030347,
          0.028763,
          0.027939,
          0.028501,
          0.027852,
          0.027151,
          0.026838,
          0.026045,
          0.031581,
          0.03356,
          0.032311,
          0.031966,
          0.031029,
          0.031143,
          0.030059,
          0.029948,
          0.029229,
          0.028431,
          0.029832,
          0.029209,
          0.030607,
          0.030809,
          0.029291,
          0.028694,
          0.028216,
          0.026832,
          0.027057,
          0.02731,
          0.026804,
          0.026847,
          0.026842,
          0.026027,
          0.026933,
          0.026574,
          0.028232,
          0.028344,
          0.027921,
          0.028335,
          0.027804,
          0.027838,
          0.02654,
          0.026387,
          0.026189,
          0.026097,
          0.025846,
          0.025632,
          0.025257,
          0.025018,
          0.024834,
          0.023979,
          0.024128,
          0.024076,
          0.023446,
          0.023567,
          0.023613,
          0.022931,
          0.023978,
          0.023162,
          0.023615,
          0.022994,
          0.02288,
          0.022789,
          0.022497,
          0.022177,
          0.021457,
          0.021671,
          0.021399,
          0.02096,
          0.021114,
          0.021475,
          0.021877,
          0.021445,
          0.020831,
          0.020753,
          0.020735,
          0.02023,
          0.01997,
          0.020126,
          0.019658,
          0.019911,
          0.019784,
          0.0194,
          0.019049,
          0.018842,
          0.018723,
          0.018832,
          0.019223,
          0.019891,
          0.01964,
          0.019321,
          0.019152,
          0.01943,
          0.019294,
          0.018729,
          0.018772,
          0.018524,
          0.018253,
          0.018384,
          0.018544,
          0.019025,
          0.018821,
          0.01858,
          0.023376,
          0.023236,
          0.023397,
          0.022986,
          0.022698,
          0.022823,
          0.022818,
          0.022101,
          0.022289,
          0.022352,
          0.022009,
          0.022642,
          0.022256,
          0.022259,
          0.022152,
          0.021525,
          0.021485,
          0.021535,
          0.022481,
          0.023052,
          0.0225,
          0.021693,
          0.022369,
          0.022272,
          0.02233,
          0.021558,
          0.021906,
          0.02202,
          0.021786,
          0.021676,
          0.021864,
          0.021532,
          0.021773,
          0.022179,
          0.022188,
          0.022116,
          0.022107,
          0.022051,
          0.021818,
          0.021737,
          0.021892,
          0.021654,
          0.022079,
          0.021313,
          0.021786,
          0.022431,
          0.021886,
          0.022233,
          0.021653,
          0.021632,
          0.021966,
          0.021723,
          0.021651,
          0.021309,
          0.021286,
          0.020945,
          0.020857,
          0.029809,
          0.029302,
          0.028835,
          0.029345,
          0.028946,
          0.028735,
          0.028831,
          0.028538,
          0.028649,
          0.029037,
          0.036093,
          0.035265,
          0.035715,
          0.036019,
          0.036668,
          0.037343,
          0.038017,
          0.038321,
          0.039413,
          0.041057,
          0.041101,
          0.042485,
          0.043273,
          0.044188,
          0.044838,
          0.045063,
          0.038109,
          0.038438,
          0.039055,
          0.038866,
          0.03919,
          0.033318,
          0.032122,
          0.031609,
          0.030841,
          0.031618,
          0.031308,
          0.031389,
          0.031084,
          0.030735,
          0.030695,
          0.030569,
          0.030148,
          0.029772,
          0.029946,
          0.029374,
          0.028288,
          0.028215,
          0.027635,
          0.028326,
          0.029617,
          0.02754,
          0.027105,
          0.026496,
          0.026262,
          0.026606,
          0.025689,
          0.025547,
          0.025537,
          0.025189,
          0.025444,
          0.024767,
          0.024641,
          0.024497,
          0.024525,
          0.024703,
          0.024501,
          0.024626,
          0.024921,
          0.024445,
          0.024382,
          0.024245,
          0.077173,
          0.07684,
          0.076239,
          0.075678,
          0.075571,
          0.075531,
          0.075231,
          0.075598,
          0.10825,
          0.10774,
          0.1075,
          0.10846,
          0.10792,
          0.10877,
          0.10927,
          0.10948,
          0.17982,
          0.18498,
          0.18982,
          0.19034,
          0.19055,
          0.1889,
          0.18469,
          0.17852,
          0.17508,
          0.17161,
          0.17319,
          0.17435,
          0.17368,
          0.1723,
          0.17185,
          0.17265,
          0.1699,
          0.17266,
          0.17022,
          0.16866,
          0.16888,
          0.16632,
          0.05342,
          0.053562,
          0.053673,
          0.053733,
          0.053511,
          0.054677,
          0.037888,
          0.038125,
          0.037963,
          0.037863,
          0.038168,
          0.037693,
          0.037545,
          0.037522,
          0.036895,
          0.037202,
          0.026097,
          0.025993,
          0.02609,
          0.025674,
          0.025395,
          0.02565,
          0.025324,
          0.025463,
          0.024898,
          0.024936,
          0.02476,
          0.024928,
          0.024526,
          0.024525,
          0.024468,
          0.024647,
          0.024572,
          0.024732,
          0.024882,
          0.025202,
          0.024831,
          0.024762,
          0.054621,
          0.055673,
          0.055667,
          0.05571,
          0.056885,
          0.056519,
          0.057325,
          0.055989,
          0.05602,
          0.056799,
          0.056555,
          0.057721,
          0.057578,
          0.056044,
          0.055059,
          0.055726,
          0.05608,
          0.069705,
          0.071008,
          0.070449,
          0.069778,
          0.069413,
          0.070129,
          0.070728,
          0.1142,
          0.11298,
          0.11359,
          0.11699,
          0.11839,
          0.12262,
          0.12399,
          0.12923,
          0.13173,
          0.13264,
          0.13363,
          0.13369,
          0.1362,
          0.13444,
          0.13021,
          0.12489,
          0.12404,
          0.12132,
          0.12011,
          0.11953,
          0.11873,
          0.11634,
          0.11407,
          0.1137,
          0.11203,
          0.11211,
          0.1093,
          0.10975,
          0.055548,
          0.054947,
          0.054671,
          0.053773,
          0.053618,
          0.053792,
          0.038885,
          0.025597,
          0.025396,
          0.025106,
          0.025131,
          0.024817,
          0.024799,
          0.024907,
          0.024451,
          0.024689,
          0.02492,
          0.023993,
          0.024155,
          0.024626,
          0.024432,
          0.029745,
          0.029549,
          0.029572,
          0.029995,
          0.029699,
          0.030174,
          0.030106,
          0.030046,
          0.029682,
          0.042338,
          0.04287,
          0.043172,
          0.044096,
          0.044639,
          0.044517,
          0.044954,
          0.045586,
          0.046929,
          0.048003,
          0.048878,
          0.049334,
          0.050299,
          0.051803,
          0.052374,
          0.053658,
          0.055425,
          0.056499,
          0.057278,
          0.057328,
          0.056665,
          0.056023,
          0.055107,
          0.054504,
          0.053269,
          0.052002,
          0.047365,
          0.046199,
          0.045591,
          0.044731,
          0.043842,
          0.043207,
          0.042652,
          0.042177,
          0.042074,
          0.029589,
          0.028937,
          0.028487,
          0.028603,
          0.028634,
          0.028563,
          0.028668,
          0.01993,
          0.019109,
          0.018718,
          0.019239,
          0.019006,
          0.018811,
          0.01866,
          0.018481,
          0.018465,
          0.018335,
          0.017956,
          0.017911,
          0.017738,
          0.017666,
          0.017738,
          0.017596,
          0.017326,
          0.017221,
          0.017305,
          0.023504,
          0.025827,
          0.025615,
          0.025595,
          0.026009,
          0.026433,
          0.026581,
          0.026558,
          0.02612,
          0.026084,
          0.025963,
          0.025841,
          0.025618,
          0.025367,
          0.025423,
          0.025273,
          0.025434,
          0.025587,
          0.025449,
          0.02517,
          0.025301,
          0.025123,
          0.025119,
          0.025168,
          0.025366,
          0.025717,
          0.026606,
          0.026399,
          0.026203,
          0.026739,
          0.027467,
          0.02737,
          0.027347,
          0.027331,
          0.027253,
          0.02753,
          0.027458,
          0.027554,
          0.027908,
          0.027745,
          0.027701,
          0.027327,
          0.02704,
          0.026548,
          0.026561,
          0.026497,
          0.026328,
          0.026485,
          0.026931,
          0.026475,
          0.02659,
          0.025996,
          0.025835,
          0.025828,
          0.025698,
          0.025571,
          0.025573,
          0.025385,
          0.025453,
          0.025606,
          0.025689,
          0.025556,
          0.025419,
          0.025801,
          0.025486,
          0.025326,
          0.025228,
          0.025438,
          0.02518,
          0.025381,
          0.024873,
          0.025247,
          0.02516,
          0.025659,
          0.025677,
          0.025315,
          0.025081,
          0.024829,
          0.024725,
          0.025124,
          0.025287,
          0.024768,
          0.024457,
          0.024557,
          0.024414,
          0.024301,
          0.024657,
          0.024238,
          0.024068,
          0.024145,
          0.023908,
          0.02469,
          0.024181,
          0.024416,
          0.024954,
          0.024394,
          0.024292,
          0.02432,
          0.023992,
          0.023894,
          0.02413,
          0.02389,
          0.023832,
          0.023778,
          0.023822,
          0.023796,
          0.02421,
          0.024874,
          0.024442,
          0.034444,
          0.034206,
          0.033717,
          0.033595,
          0.033511,
          0.033481,
          0.033359,
          0.033302,
          0.033454,
          0.033784,
          0.034284,
          0.035272,
          0.035715,
          0.034935,
          0.033914,
          0.033629,
          0.033834,
          0.048378,
          0.048737,
          0.048678,
          0.04884,
          0.04875,
          0.048748,
          0.049017,
          0.049302,
          0.049606,
          0.050106,
          0.050405,
          0.050828,
          0.051214,
          0.051676,
          0.052839,
          0.053783,
          0.054812,
          0.055799,
          0.05653,
          0.05705,
          0.058518,
          0.058972,
          0.059721,
          0.060209,
          0.060569,
          0.061009,
          0.060814,
          0.060581,
          0.059954,
          0.059628,
          0.058304,
          0.057886,
          0.056912,
          0.056745,
          0.055916,
          0.055607,
          0.055565,
          0.055243,
          0.054903,
          0.054923,
          0.05471,
          0.055065,
          0.055092,
          0.054958,
          0.054594,
          0.054716,
          0.054582,
          0.054308,
          0.054328,
          0.038386,
          0.038485,
          0.038763,
          0.039109,
          0.039349,
          0.039415,
          0.032417,
          0.032828,
          0.033052,
          0.033965,
          0.035501,
          0.036285,
          0.036124,
          0.036556,
          0.036701,
          0.03709,
          0.037568,
          0.037582,
          0.037209,
          0.036658,
          0.035799,
          0.035406,
          0.035029,
          0.034268,
          0.033606,
          0.028762,
          0.028119,
          0.027291,
          0.026864,
          0.026402,
          0.025846,
          0.025409,
          0.024847,
          0.024591,
          0.024107,
          0.023869,
          0.023698,
          0.024053,
          0.023223,
          0.023331,
          0.022583,
          0.022251,
          0.022392,
          0.022524,
          0.022086,
          0.022175,
          0.021628,
          0.021494,
          0.021497,
          0.021399,
          0.02145,
          0.021258,
          0.021233,
          0.02141,
          0.021253,
          0.021318,
          0.021469,
          0.020964,
          0.020531,
          0.020706,
          0.02066,
          0.020522,
          0.020745,
          0.020457,
          0.020224,
          0.020182,
          0.020091,
          0.019865,
          0.020223,
          0.020762,
          0.020306,
          0.020033,
          0.020025,
          0.019969,
          0.019903,
          0.020153,
          0.02008,
          0.019893,
          0.019871,
          0.019883,
          0.020146,
          0.02024,
          0.02051,
          0.020204,
          0.020457,
          0.020512,
          0.020618,
          0.020895,
          0.021116,
          0.020555,
          0.020343,
          0.02033,
          0.020184,
          0.02033,
          0.020609,
          0.020275,
          0.020733,
          0.020735,
          0.020965,
          0.029663,
          0.029727,
          0.029572,
          0.029485,
          0.029586,
          0.02929,
          0.029014,
          0.029044,
          0.029316,
          0.029465,
          0.029918,
          0.030179,
          0.020909,
          0.020395,
          0.020198,
          0.020049,
          0.020023,
          0.019984,
          0.01973,
          0.020127,
          0.02004,
          0.020031,
          0.020122,
          0.020274,
          0.020346,
          0.020024,
          0.019856,
          0.020112,
          0.020583,
          0.020381,
          0.020021,
          0.020077,
          0.020156,
          0.020143,
          0.020374,
          0.023522,
          0.025274,
          0.025853,
          0.026965,
          0.028508,
          0.029066,
          0.027994,
          0.026348,
          0.025048,
          0.024092,
          0.023355,
          0.022928,
          0.022993,
          0.023181,
          0.022518,
          0.022313,
          0.02247,
          0.022284,
          0.022215,
          0.022178,
          0.02221,
          0.031976,
          0.031595,
          0.031159,
          0.031027,
          0.031129,
          0.031194,
          0.031158,
          0.030971,
          0.043898,
          0.043892,
          0.044123,
          0.044505,
          0.045108,
          0.045426,
          0.046459,
          0.046855,
          0.047763,
          0.048236,
          0.04861,
          0.048388,
          0.047912,
          0.047273,
          0.046433,
          0.045827,
          0.045496,
          0.044972,
          0.044737,
          0.044704,
          0.044895,
          0.045165,
          0.044939,
          0.031471,
          0.030715,
          0.030555,
          0.030615,
          0.030659,
          0.030853,
          0.025123,
          0.024915,
          0.024675,
          0.02467,
          0.024465,
          0.024437,
          0.024729,
          0.024664,
          0.02449,
          0.024533,
          0.024526,
          0.024254,
          0.024157,
          0.024177,
          0.024272,
          0.024602,
          0.024843,
          0.024562,
          0.024348,
          0.024288,
          0.0245,
          0.024434,
          0.024326,
          0.024256,
          0.024448,
          0.024207,
          0.024985,
          0.025138,
          0.024698,
          0.02464,
          0.024489,
          0.024178,
          0.024216,
          0.024524,
          0.024746,
          0.024265,
          0.024136,
          0.02414,
          0.024069,
          0.024102,
          0.024148,
          0.024417,
          0.023985,
          0.023413,
          0.040439,
          0.040415,
          0.040226,
          0.040408,
          0.040427,
          0.040402,
          0.040569,
          0.040798,
          0.04099,
          0.040848,
          0.040671,
          0.04066,
          0.040985,
          0.041285,
          0.04139,
          0.041339,
          0.041081,
          0.040794,
          0.040658,
          0.02015,
          0.020471,
          0.020343,
          0.020053,
          0.019847,
          0.019725,
          0.01988,
          0.019999,
          0.020127,
          0.019918,
          0.019699,
          0.019539,
          0.019625,
          0.019952,
          0.019839,
          0.019644,
          0.019768,
          0.019461,
          0.019281,
          0.019107,
          0.018934,
          0.019034,
          0.018961,
          0.019039,
          0.019117,
          0.019136,
          0.019092,
          0.019091,
          0.019148,
          0.019151,
          0.019208,
          0.019239,
          0.019134,
          0.018865,
          0.018922,
          0.018993,
          0.01873,
          0.018428,
          0.018592,
          0.018708,
          0.018482,
          0.018482,
          0.018277,
          0.026129,
          0.026387,
          0.026179,
          0.026231,
          0.02632,
          0.026197,
          0.026049,
          0.025975,
          0.026144,
          0.026297,
          0.02648,
          0.026513,
          0.026777,
          0.026984,
          0.026871,
          0.027243,
          0.027114,
          0.026527,
          0.026454,
          0.026681,
          0.026703,
          0.026455,
          0.026074,
          0.025698,
          0.025546,
          0.025274,
          0.02516,
          0.025172,
          0.025303,
          0.025481,
          0.025276,
          0.025123,
          0.025009,
          0.02513,
          0.02524,
          0.024981,
          0.025045,
          0.025156,
          0.025168,
          0.024972,
          0.024955,
          0.025004,
          0.024988,
          0.024987,
          0.025104,
          0.025229,
          0.025112,
          0.025135,
          0.025487,
          0.025534,
          0.025323,
          0.025119,
          0.025219,
          0.025611,
          0.025736,
          0.025787,
          0.025806,
          0.025687,
          0.025696,
          0.025588,
          0.025221,
          0.025087,
          0.025044,
          0.025209,
          0.025577,
          0.025454,
          0.025556,
          0.025764,
          0.02609,
          0.025958,
          0.025973,
          0.025795,
          0.025723,
          0.025654,
          0.025641,
          0.025488,
          0.025579,
          0.025944,
          0.026175,
          0.026528,
          0.026361,
          0.026165,
          0.026449,
          0.026495,
          0.026423,
          0.026523,
          0.026852,
          0.026706,
          0.026157,
          0.025876,
          0.025843,
          0.025884,
          0.026156,
          0.026509,
          0.02649,
          0.026267,
          0.025956,
          0.025639,
          0.025462,
          0.025474,
          0.035933,
          0.035667,
          0.035684,
          0.11967,
          0.12158,
          0.1213,
          0.12409,
          0.12744,
          0.13041,
          0.13085,
          0.12884,
          0.12762,
          0.12786,
          0.12565,
          0.12468,
          0.12412,
          0.12509,
          0.12404,
          0.12361,
          0.095021,
          0.094671,
          0.094596,
          0.094765,
          0.094927,
          0.094852,
          0.095114,
          0.067842,
          0.068383,
          0.025577,
          0.026428,
          0.026465,
          0.026241,
          0.026091,
          0.026035,
          0.026038,
          0.025956,
          0.025519,
          0.025399,
          0.025426,
          0.025505,
          0.025555,
          0.021052,
          0.021021,
          0.020858,
          0.020811,
          0.020839,
          0.020712,
          0.020956,
          0.020733,
          0.020441,
          0.020569,
          0.020615,
          0.020501,
          0.020627,
          0.020487,
          0.020047,
          0.019851,
          0.019829,
          0.019788,
          0.019823,
          0.019876,
          0.02038,
          0.020285,
          0.01994,
          0.019661,
          0.019697,
          0.019976,
          0.01969,
          0.019536,
          0.019753,
          0.019759,
          0.019747,
          0.019848,
          0.019809,
          0.019755,
          0.019734,
          0.0198,
          0.019816,
          0.019887,
          0.019965,
          0.019914,
          0.019809,
          0.019845,
          0.020133,
          0.019982,
          0.019935,
          0.019635,
          0.019469,
          0.019557,
          0.019682,
          0.019642,
          0.01956,
          0.019543,
          0.01947,
          0.019553,
          0.019701,
          0.019865,
          0.019768,
          0.019856,
          0.020434,
          0.020358,
          0.020315,
          0.020413,
          0.020281,
          0.020481,
          0.020557,
          0.020253,
          0.020258,
          0.020333,
          0.020329,
          0.020363,
          0.020215,
          0.020081,
          0.020195,
          0.020701,
          0.020778,
          0.020835,
          0.020816,
          0.020755,
          0.020574,
          0.020793,
          0.020897,
          0.025578,
          0.025598,
          0.025845,
          0.025759,
          0.025414,
          0.025291,
          0.02553,
          0.025396,
          0.025335,
          0.025522,
          0.025886,
          0.026135,
          0.025757,
          0.025492,
          0.025512,
          0.02541,
          0.025388,
          0.025597,
          0.025668,
          0.018119,
          0.017725,
          0.017689,
          0.016829,
          0.01658,
          0.01655,
          0.016548,
          0.016602,
          0.016442,
          0.01653,
          0.016788,
          0.016719,
          0.017119,
          0.017099,
          0.016918,
          0.016735,
          0.016829,
          0.016848,
          0.016629,
          0.016534,
          0.016544,
          0.016408,
          0.016377,
          0.016544,
          0.016603,
          0.016447,
          0.016431,
          0.016569,
          0.016499,
          0.016434,
          0.016577,
          0.016617,
          0.016535,
          0.016294,
          0.016442,
          0.016663,
          0.016787,
          0.016902,
          0.017124,
          0.017347,
          0.017099,
          0.017046,
          0.017014,
          0.017183,
          0.01739,
          0.017612,
          0.017564,
          0.01737,
          0.017337,
          0.017378,
          0.017542,
          0.017495,
          0.01739,
          0.017168,
          0.017293,
          0.017462,
          0.018358,
          0.018772,
          0.017491,
          0.017219,
          0.017315,
          0.017471,
          0.024667,
          0.024521,
          0.024487,
          0.024424,
          0.024354,
          0.024376,
          0.024398,
          0.024419,
          0.024411,
          0.024365,
          0.024415,
          0.024554,
          0.02446,
          0.024332,
          0.024415,
          0.024532,
          0.024459,
          0.024504,
          0.024556,
          0.024659,
          0.024662,
          0.024503,
          0.024515,
          0.024859,
          0.025165,
          0.025117,
          0.025071,
          0.025256,
          0.025255,
          0.025126,
          0.024999,
          0.025048,
          0.025162,
          0.02536,
          0.025342,
          0.025229,
          0.025087,
          0.025211,
          0.02512,
          0.025216,
          0.025458,
          0.025441,
          0.025245,
          0.024986,
          0.024983,
          0.025139,
          0.025031,
          0.025132,
          0.025233,
          0.025171,
          0.024994,
          0.024873,
          0.024832,
          0.025124,
          0.025142,
          0.025223,
          0.025402,
          0.025269,
          0.025215,
          0.025341,
          0.025278,
          0.025374,
          0.025439,
          0.025202,
          0.025284,
          0.025463,
          0.025714,
          0.025859,
          0.025844,
          0.025707,
          0.025784,
          0.025983,
          0.025934,
          0.025826,
          0.025952,
          0.025749,
          0.025872,
          0.025976,
          0.026172,
          0.026192,
          0.026146,
          0.026325,
          0.026401,
          0.026431,
          0.026527,
          0.02637,
          0.026497,
          0.0265,
          0.02635,
          0.026316,
          0.026222,
          0.026257,
          0.026415,
          0.026497,
          0.026404,
          0.026204,
          0.026162,
          0.026263,
          0.026326,
          0.026481,
          0.026388,
          0.02644,
          0.026673,
          0.026815,
          0.027082,
          0.027375,
          0.027983,
          0.028509,
          0.028899,
          0.029255,
          0.029763,
          0.030295,
          0.030748,
          0.031142,
          0.031141,
          0.031193,
          0.031203,
          0.031154,
          0.030886,
          0.030761,
          0.030534,
          0.030392,
          0.030538,
          0.030653,
          0.030664,
          0.030836,
          0.030958,
          0.030653,
          0.030404,
          0.030275,
          0.030641,
          0.030571,
          0.030578,
          0.030468,
          0.03024,
          0.030287,
          0.030274,
          0.03033,
          0.030258,
          0.030227,
          0.030327,
          0.030404,
          0.030329,
          0.030336,
          0.030377,
          0.030323,
          0.03048,
          0.030611,
          0.030791,
          0.030839,
          0.030656,
          0.030291,
          0.029694,
          0.029136,
          0.028718,
          0.028428,
          0.028259,
          0.028401,
          0.028417,
          0.028469,
          0.028366,
          0.028439,
          0.028541,
          0.028655,
          0.028633,
          0.02861,
          0.028486,
          0.028413,
          0.028275,
          0.02833,
          0.028416,
          0.028394,
          0.02834,
          0.02839,
          0.028365,
          0.028514,
          0.028525,
          0.028457,
          0.028182,
          0.028015,
          0.027955,
          0.027991,
          0.028007,
          0.028167,
          0.028268,
          0.02825,
          0.028244,
          0.028477,
          0.028481,
          0.028445,
          0.028439,
          0.028503,
          0.028467,
          0.028389,
          0.028291,
          0.028051,
          0.027999,
          0.02803,
          0.027893,
          0.027945,
          0.028025,
          0.028081,
          0.028145,
          0.028161,
          0.028106,
          0.028164,
          0.028289,
          0.028327,
          0.028388,
          0.028316,
          0.028301,
          0.028451,
          0.028413,
          0.028275,
          0.028267,
          0.028228,
          0.028236,
          0.028229,
          0.02841,
          0.028266,
          0.027918,
          0.027763,
          0.027664,
          0.027814,
          0.027914,
          0.027882,
          0.028144,
          0.028102,
          0.028025,
          0.028026,
          0.027971,
          0.028011,
          0.028006,
          0.028001,
          0.02799,
          0.027885,
          0.027776,
          0.027568,
          0.027461,
          0.027356,
          0.027156,
          0.027228,
          0.027349,
          0.02724,
          0.027181,
          0.027314,
          0.027369,
          0.027496,
          0.027612,
          0.027471,
          0.027364,
          0.027217,
          0.027247,
          0.027275,
          0.027194,
          0.02719,
          0.027044,
          0.026977,
          0.02686,
          0.026847,
          0.026889,
          0.026986,
          0.027006,
          0.027052,
          0.026963,
          0.026924,
          0.026828,
          0.026777,
          0.026776,
          0.026754,
          0.026628,
          0.026842,
          0.02689,
          0.0267,
          0.026674,
          0.026617,
          0.02655,
          0.026627,
          0.026528,
          0.02661,
          0.026564,
          0.026395,
          0.026264,
          0.026181,
          0.026054,
          0.026094,
          0.026071,
          0.026302,
          0.026605,
          0.027033,
          0.027471,
          0.027628,
          0.027591,
          0.027429,
          0.02745,
          0.02732,
          0.02727,
          0.027221,
          0.027178,
          0.027134,
          0.027268,
          0.027194,
          0.026994,
          0.026893,
          0.026973,
          0.027033,
          0.027201,
          0.027166,
          0.027027,
          0.027073,
          0.027029,
          0.026939,
          0.02694,
          0.026885,
          0.026905,
          0.026935,
          0.026894,
          0.026833,
          0.026868,
          0.026872,
          0.02684,
          0.026789,
          0.026818,
          0.02677,
          0.026648,
          0.026483,
          0.026369,
          0.026474,
          0.026576,
          0.026561,
          0.026581,
          0.026577,
          0.026524,
          0.026555,
          0.026573,
          0.026633,
          0.026618,
          0.026557,
          0.026642,
          0.02672,
          0.026515,
          0.026443,
          0.026417,
          0.026512,
          0.026559,
          0.026503,
          0.02663,
          0.026692,
          0.026651,
          0.026609,
          0.026641,
          0.026705,
          0.026748,
          0.026754,
          0.026807,
          0.026762,
          0.026739,
          0.026708,
          0.026712,
          0.026637,
          0.026625,
          0.02661,
          0.026565,
          0.026604,
          0.026818,
          0.027107,
          0.027291,
          0.027029,
          0.026811,
          0.026766,
          0.026877,
          0.02684,
          0.026789,
          0.026833,
          0.026821,
          0.026817,
          0.026861,
          0.026882,
          0.026899,
          0.026927,
          0.026816,
          0.026736,
          0.026725,
          0.026634,
          0.026782,
          0.026801,
          0.026782,
          0.02676,
          0.026724,
          0.026794,
          0.02673,
          0.026721,
          0.026715,
          0.026742,
          0.02679,
          0.026908,
          0.026832,
          0.026715,
          0.021785,
          0.021735,
          0.02177,
          0.021822,
          0.021821,
          0.02186,
          0.021846,
          0.021806,
          0.02185,
          0.022084,
          0.022203,
          0.021839,
          0.021779,
          0.021774,
          0.021743,
          0.021765,
          0.021886,
          0.021922,
          0.021791,
          0.021732,
          0.021717,
          0.02169,
          0.021652,
          0.021638,
          0.021682,
          0.021754,
          0.021825,
          0.021796,
          0.021805,
          0.021762,
          0.021832,
          0.02191,
          0.021981,
          0.02203,
          0.022072,
          0.022137,
          0.02223,
          0.022331,
          0.022486,
          0.022401,
          0.022312,
          0.022214,
          0.022064,
          0.022036,
          0.021916,
          0.021829,
          0.021774,
          0.021768,
          0.021679,
          0.021659,
          0.02165,
          0.021662,
          0.021643,
          0.021649,
          0.021714,
          0.02179,
          0.021917,
          0.022023,
          0.022072,
          0.022107,
          0.022139,
          0.022141,
          0.022125,
          0.022179,
          0.022119,
          0.022111,
          0.022163,
          0.01567,
          0.015558,
          0.015345,
          0.015085,
          0.014946,
          0.015029,
          0.015223,
          0.015425,
          0.015571,
          0.015621,
          0.015666,
          0.015763,
          0.015838,
          0.015821,
          0.015727,
          0.015599,
          0.015509,
          0.015553,
          0.015678,
          0.015711,
          0.015862,
          0.016001,
          0.016044,
          0.01585,
          0.015603,
          0.015846,
          0.016065,
          0.016189,
          0.016357,
          0.016535,
          0.01676,
          0.016776,
          0.016833,
          0.017121,
          0.017137,
          0.017077,
          0.017197,
          0.01731,
          0.017289,
          0.017733,
          0.018138,
          0.018257,
          0.018268,
          0.018364,
          0.018555,
          0.018724,
          0.018783,
          0.018923,
          0.019022,
          0.019112,
          0.019262,
          0.019572,
          0.019902,
          0.02004,
          0.020215,
          0.020456,
          0.020616,
          0.020833,
          0.014953
        ]
      ]
    }
  },
  "10778-003": {
    "reaction": {
      "1": {
        "x4_code": "(9-F-19(N,0),,EN)",
        "0": {
          "code": [
            "9-F-19",
            [
              "N,0"
            ],
            ",,EN"
          ],
          "type": null,
          "target": "9-F-19",
          "process": "N,0",
          "sf49": ",,EN",
          "sf4": null,
          "sf5": null,
          "sf6": "EN",
          "sf7": null,
          "sf8": null,
          "sf9": null
        },
        "type": null,
        "free_text": ""
      },
      "2": {
        "x4_code": "(9-F-19(N,TOT),,WID)",
        "0": {
          "code": [
            "9-F-19",
            [
              "N,TOT"
            ],
            ",,WID"
          ],
          "type": null,
          "target": "9-F-19",
          "process": "N,TOT",
          "sf49": ",,WID",
          "sf4": null,
          "sf5": null,
          "sf6": "WID",
          "sf7": null,
          "sf8": null,
          "sf9": null
        },
        "type": null,
        "free_text": ""
      }
    },
    "extra_information": {
      "err-analys": {
        "0": [
          {
            "x4_code": "(DATA-ERR)",
            "free_txt": [
              " No information on source of uncertainty."
            ]
          }
        ]
      },
      "status": {
        "0": [
          {
            "x4_code": "(TABLE)",
            "free_txt": [
              " Data received in private communication,",
              "        D.C.Larson, 1980/7"
            ]
          }
        ]
      }
    },
    "common": null,
    "data": {
      "heads": [
        "DATA      1",
        "DATA-ERR  1",
        "DATA      2",
        "DATA-ERR  2"
      ],
      "units": [
        "KEV",
        "KEV",
        "KEV",
        "KEV"
      ],
      "data": [
        [
          27.052,
          49.048,
          97.767
        ],
        [
          0.003,
          0.007,
          0.056
        ],
        [
          0.356,
          1.801,
          16.363
        ],
        [
          0.004,
          0.019,
          0.101
        ]
      ]
    }
  }
}