{
  "bib": {
    "title": " U-235 fission cross-section in energy region 0.8-168.6 eV",
    "authors": [
      {
        "name": "T.A.Mostovaya"
      },
      {
        "name": "O.G.Bespalov"
      }
    ],
    "institutes": [
      {
        "x4_code": "(4RUSKUR)",
        "free_txt": []
      }
    ],
    "references": {
      "0": [
        {
          "x4_code": "(R,ICD-3,10,1966)",
          "free_txt": [
            " Figures only.",
            "In R,INDC(CCP)-016,1967=R,INDSWG-152,1967 full text of",
            "this article is absent at NDS,IAEA web-site."
          ],
          "publication_year": "1966"
        }
      ]
    },
    "facility": {
      "0": [
        {
          "x4_code": "(LINAC)",
          "free_txt": [
            " Electron linear accelerator.",
            " Pulse duration 0.2 microsec, frequency 127 Hz,",
            " neutron yield at pulse 10**10 1/sec."
          ]
        }
      ]
    },
    "history": [
      {
        "x4_code": "(19750227T)",
        "free_txt": [
          " Previously DASTAR 00056"
        ]
      },
      {
        "x4_code": "(19871026U)",
        "free_txt": [
          "  ISO-QUANT code into REACTION one converted",
          "           and DATA-ERR values corrected"
        ]
      },
      {
        "x4_code": "(20210831A)",
        "free_txt": [
          " M.M. correction for current rules and",
          " dictionaries."
        ]
      }
    ]
  },
  "40272-001": {
    "extra_information": {
      "correction": {
        "0": [
          {
            "x4_code": null,
            "free_txt": [
              "For backgrounds."
            ]
          }
        ]
      },
      "detector": {
        "0": [
          {
            "x4_code": "(FISCH)",
            "free_txt": [
              " Multi-level ionization chamber placed at",
              "1917.7 cm distance from neutron source."
            ]
          },
          {
            "x4_code": "(BF3)",
            "free_txt": [
              " Two BF3 proportional counters of 2 cm diameter,",
              " 20 cm long. For incident neutron spectrum measurement.",
              ". 2048 channel time analyzer."
            ]
          }
        ]
      },
      "facility": {
        "0": [
          {
            "x4_code": "(LINAC)",
            "free_txt": [
              " Electron linear accelerator.",
              " Pulse duration 0.2 microsec, frequency 127 Hz,",
              " neutron yield at pulse 10**10 1/sec."
            ]
          }
        ]
      },
      "inc-spect": {
        "0": [
          {
            "x4_code": null,
            "free_txt": [
              " Energy range,eV   168.6-6.85   6.85-1.67   1.67-0.8",
              " Resolution (%)    0.70 -0.35   0.49-0.36   0.46-0.40",
              " Channel width,mus     0.25        1.0         2.0"
            ]
          }
        ]
      },
      "method": {
        "0": [
          {
            "x4_code": "(TOF)",
            "free_txt": []
          }
        ]
      },
      "part-det": {
        "0": [
          {
            "x4_code": "(FF,N)",
            "free_txt": []
          }
        ]
      },
      "sample": {
        "0": [
          {
            "x4_code": "(92-U-235,ENR=0.90)",
            "free_txt": [
              " ~ 1 mg/cm2 thickness, on Al plates."
            ]
          }
        ]
      },
      "status": {
        "0": [
          {
            "x4_code": "(DASTR)",
            "free_txt": [
              "  Data from DASTAR 00056"
            ]
          }
        ]
      }
    }
  },
  "40272-002": {
    "reaction": {
      "0": {
        "x4_code": "(92-U-235(N,F),,SIG)",
        "0": {
          "code": [
            "92-U-235",
            [
              "N,F"
            ],
            ",,SIG"
          ],
          "type": null,
          "target": "92-U-235",
          "process": "N,F",
          "sf49": ",,SIG",
          "sf4": null,
          "sf5": null,
          "sf6": "SIG",
          "sf7": null,
          "sf8": null,
          "sf9": null
        },
        "type": null,
        "free_text": ""
      }
    },
    "extra_information": {
      "err-analys": {
        "0": [
          {
            "x4_code": "(DATA-ERR)",
            "free_txt": [
              " Relative errors DELTA SIGMA/SIGMA are given"
            ]
          }
        ]
      },
      "monitor": {
        "0": [
          {
            "x4_code": "(92-U-235(N,F),,SIG)",
            "free_txt": [
              "   Fission cross-section of U-235",
              "      from BNL-325,(1965) in energy region 0.8-0.9 eV",
              "      was used as a standard"
            ]
          }
        ]
      },
      "status": {
        "0": [
          {
            "x4_code": "(TABLE)",
            "free_txt": [
              " Data were received from authors."
            ]
          },
          {
            "x4_code": "(COREL,40218002)",
            "free_txt": [
              " C-S (from author) at 15 points at",
              " energy range 3.611 - 90.00 eV."
            ]
          }
        ]
      }
    },
    "common": {
      "heads": [
        "EN-NRM-MIN",
        "EN-NRM-MAX"
      ],
      "units": [
        "EV",
        "EV"
      ],
      "data": [
        [
          0.8
        ],
        [
          0.9
        ]
      ]
    },
    "data": {
      "heads": [
        "EN",
        "DATA",
        "DATA-ERR"
      ],
      "units": [
        "EV",
        "B",
        "PER-CENT"
      ],
      "data": [
        [
          0.8243,
          0.8452,
          0.8645,
          0.8895,
          0.905,
          0.921,
          0.9291,
          0.9542,
          0.9715,
          0.9803,
          0.9892,
          0.9983,
          1.007,
          1.017,
          1.026,
          1.036,
          1.045,
          1.055,
          1.065,
          1.075,
          1.086,
          1.096,
          1.117,
          1.139,
          1.151,
          1.162,
          1.173,
          1.181,
          1.197,
          1.209,
          1.221,
          1.234,
          1.246,
          1.259,
          1.272,
          1.285,
          1.299,
          1.313,
          1.326,
          1.345,
          1.355,
          1.369,
          1.384,
          1.399,
          1.414,
          1.43,
          1.446,
          1.462,
          1.478,
          1.494,
          1.511,
          1.523,
          1.546,
          1.564,
          1.582,
          1.6,
          1.619,
          1.638,
          1.657,
          1.677,
          1.697,
          1.717,
          1.738,
          1.755,
          1.766,
          1.777,
          1.788,
          1.799,
          1.81,
          1.821,
          1.834,
          1.844,
          1.867,
          1.878,
          1.89,
          1.902,
          1.914,
          1.926,
          1.939,
          1.951,
          1.964,
          1.976,
          1.989,
          2.002,
          2.006,
          2.011,
          2.019,
          2.024,
          2.028,
          2.046,
          2.059,
          2.064,
          2.068,
          2.073,
          2.077,
          2.082,
          2.087,
          2.091,
          2.096,
          2.1,
          2.105,
          2.114,
          2.124,
          2.138,
          2.152,
          2.167,
          2.182,
          2.196,
          2.211,
          2.226,
          2.242,
          2.257,
          2.273,
          2.283,
          2.304,
          2.32,
          2.337,
          2.353,
          2.37,
          2.386,
          2.403,
          2.42,
          2.438,
          2.455,
          2.467,
          2.491,
          2.509,
          2.527,
          2.546,
          2.564,
          2.583,
          2.602,
          2.622,
          2.641,
          2.661,
          2.681,
          2.701,
          2.721,
          2.742,
          2.763,
          2.784,
          2.805,
          2.827,
          2.849,
          2.871,
          2.893,
          2.916,
          2.939,
          2.962,
          2.985,
          3.009,
          3.025,
          3.057,
          3.074,
          3.082,
          3.09,
          3.099,
          3.107,
          3.115,
          3.124,
          3.132,
          3.141,
          3.149,
          3.158,
          3.166,
          3.175,
          3.183,
          3.192,
          3.201,
          3.21,
          3.218,
          3.227,
          3.236,
          3.245,
          3.254,
          3.263,
          3.272,
          3.281,
          3.29,
          3.299,
          3.308,
          3.317,
          3.327,
          3.336,
          3.345,
          3.354,
          3.364,
          3.373,
          3.383,
          3.392,
          3.402,
          3.411,
          3.421,
          3.431,
          3.44,
          3.45,
          3.46,
          3.47,
          3.48,
          3.489,
          3.499,
          3.509,
          3.519,
          3.53,
          3.54,
          3.55,
          3.56,
          3.57,
          3.581,
          3.591,
          3.601,
          3.612,
          3.622,
          3.633,
          3.643,
          3.654,
          3.665,
          3.675,
          3.686,
          3.697,
          3.708,
          3.719,
          3.73,
          3.741,
          3.752,
          3.763,
          3.774,
          3.785,
          3.796,
          3.808,
          3.819,
          3.83,
          3.842,
          3.853,
          3.865,
          3.877,
          3.888,
          3.9,
          3.912,
          3.924,
          3.935,
          3.947,
          3.959,
          3.971,
          3.983,
          3.996,
          4.008,
          4.02,
          4.032,
          4.045,
          4.057,
          4.07,
          4.082,
          4.095,
          4.107,
          4.12,
          4.133,
          4.146,
          4.159,
          4.172,
          4.185,
          4.198,
          4.211,
          4.224,
          4.237,
          4.251,
          4.264,
          4.277,
          4.291,
          4.305,
          4.318,
          4.332,
          4.346,
          4.359,
          4.373,
          4.387,
          4.401,
          4.415,
          4.43,
          4.444,
          4.458,
          4.473,
          4.487,
          4.502,
          4.516,
          4.531,
          4.546,
          4.56,
          4.575,
          4.59,
          4.605,
          4.62,
          4.635,
          4.651,
          4.666,
          4.681,
          4.697,
          4.712,
          4.728,
          4.744,
          4.76,
          4.775,
          4.791,
          4.807,
          4.823,
          4.84,
          4.856,
          4.872,
          4.889,
          4.905,
          4.922,
          4.939,
          4.955,
          4.972,
          4.989,
          5.006,
          5.023,
          5.04,
          5.058,
          5.075,
          5.093,
          5.11,
          5.128,
          5.145,
          5.163,
          5.181,
          5.199,
          5.217,
          5.236,
          5.254,
          5.272,
          5.291,
          5.309,
          5.328,
          5.347,
          5.366,
          5.385,
          5.404,
          5.423,
          5.442,
          5.462,
          5.481,
          5.501,
          5.521,
          5.54,
          5.56,
          5.58,
          5.6,
          5.621,
          5.641,
          5.662,
          5.682,
          5.703,
          5.724,
          5.745,
          5.766,
          5.787,
          5.808,
          5.829,
          5.851,
          5.873,
          5.894,
          5.916,
          5.938,
          5.96,
          5.983,
          6.005,
          6.027,
          6.05,
          6.073,
          6.096,
          6.119,
          6.142,
          6.165,
          6.188,
          6.212,
          6.236,
          6.259,
          6.283,
          6.307,
          6.332,
          6.356,
          6.38,
          6.405,
          6.43,
          6.455,
          6.48,
          6.505,
          6.53,
          6.556,
          6.581,
          6.607,
          6.633,
          6.659,
          6.686,
          6.712,
          6.739,
          6.765,
          6.792,
          6.819,
          6.847,
          6.874,
          6.895,
          6.901,
          6.908,
          6.915,
          6.922,
          6.929,
          6.936,
          6.943,
          6.95,
          6.957,
          6.964,
          6.971,
          6.978,
          6.985,
          6.992,
          6.999,
          7.006,
          7.013,
          7.02,
          7.027,
          7.035,
          7.042,
          7.049,
          7.056,
          7.063,
          7.07,
          7.077,
          7.085,
          7.092,
          7.099,
          7.106,
          7.113,
          7.121,
          7.128,
          7.135,
          7.142,
          7.15,
          7.157,
          7.164,
          7.172,
          7.179,
          7.186,
          7.194,
          7.201,
          7.208,
          7.216,
          7.223,
          7.231,
          7.238,
          7.245,
          7.253,
          7.26,
          7.268,
          7.275,
          7.283,
          7.29,
          7.298,
          7.305,
          7.313,
          7.32,
          7.328,
          7.335,
          7.343,
          7.35,
          7.358,
          7.366,
          7.373,
          7.381,
          7.389,
          7.396,
          7.404,
          7.412,
          7.419,
          7.427,
          7.435,
          7.442,
          7.45,
          7.458,
          7.466,
          7.473,
          7.481,
          7.489,
          7.497,
          7.505,
          7.513,
          7.52,
          7.528,
          7.536,
          7.544,
          7.552,
          7.56,
          7.568,
          7.576,
          7.584,
          7.592,
          7.6,
          7.608,
          7.616,
          7.624,
          7.632,
          7.64,
          7.648,
          7.656,
          7.664,
          7.672,
          7.68,
          7.688,
          7.696,
          7.704,
          7.713,
          7.721,
          7.729,
          7.737,
          7.745,
          7.754,
          7.762,
          7.77,
          7.778,
          7.787,
          7.795,
          7.803,
          7.811,
          7.82,
          7.828,
          7.836,
          7.845,
          7.853,
          7.862,
          7.87,
          7.878,
          7.887,
          7.895,
          7.904,
          7.912,
          7.921,
          7.929,
          7.938,
          7.946,
          7.955,
          7.963,
          7.972,
          7.98,
          7.989,
          7.998,
          8.006,
          8.015,
          8.024,
          8.032,
          8.041,
          8.05,
          8.058,
          8.067,
          8.076,
          8.085,
          8.093,
          8.102,
          8.111,
          8.12,
          8.129,
          8.137,
          8.146,
          8.155,
          8.164,
          8.173,
          8.182,
          8.191,
          8.2,
          8.209,
          8.218,
          8.227,
          8.236,
          8.245,
          8.254,
          8.263,
          8.272,
          8.281,
          8.29,
          8.299,
          8.308,
          8.317,
          8.326,
          8.335,
          8.345,
          8.354,
          8.363,
          8.372,
          8.381,
          8.391,
          8.4,
          8.409,
          8.419,
          8.428,
          8.437,
          8.447,
          8.456,
          8.465,
          8.475,
          8.484,
          8.494,
          8.503,
          8.512,
          8.522,
          8.531,
          8.541,
          8.55,
          8.56,
          8.569,
          8.579,
          8.589,
          8.598,
          8.608,
          8.617,
          8.627,
          8.637,
          8.646,
          8.656,
          8.666,
          8.676,
          8.685,
          8.695,
          8.705,
          8.715,
          8.724,
          8.734,
          8.744,
          8.754,
          8.764,
          8.774,
          8.784,
          8.794,
          8.804,
          8.813,
          8.823,
          8.833,
          8.843,
          8.853,
          8.864,
          8.874,
          8.884,
          8.894,
          8.904,
          8.914,
          8.924,
          8.934,
          8.945,
          8.955,
          8.965,
          8.975,
          8.985,
          8.996,
          9.006,
          9.016,
          9.141,
          9.162,
          9.194,
          9.226,
          9.258,
          9.291,
          9.323,
          9.356,
          9.388,
          9.421,
          9.455,
          9.488,
          9.521,
          9.555,
          9.589,
          9.623,
          9.657,
          9.691,
          9.726,
          9.761,
          9.796,
          9.831,
          9.866,
          9.902,
          9.937,
          9.973,
          10.01,
          10.05,
          10.08,
          10.12,
          10.16,
          10.19,
          10.23,
          10.27,
          10.31,
          10.34,
          10.38,
          10.42,
          10.46,
          10.5,
          10.54,
          10.58,
          10.61,
          10.65,
          10.69,
          10.73,
          10.77,
          10.82,
          10.86,
          10.9,
          10.94,
          10.98,
          11.02,
          11.06,
          11.11,
          11.15,
          11.19,
          11.23,
          11.28,
          11.32,
          11.36,
          11.41,
          11.45,
          11.5,
          11.54,
          11.56,
          11.57,
          11.59,
          11.6,
          11.62,
          11.63,
          11.65,
          11.66,
          11.68,
          11.69,
          11.71,
          11.72,
          11.74,
          11.75,
          11.77,
          11.78,
          11.8,
          11.81,
          11.83,
          11.85,
          11.86,
          11.88,
          11.89,
          11.91,
          11.92,
          11.94,
          11.95,
          11.97,
          11.99,
          12.0,
          12.02,
          12.03,
          12.05,
          12.07,
          12.08,
          12.1,
          12.11,
          12.13,
          12.15,
          12.16,
          12.18,
          12.19,
          12.21,
          12.23,
          12.24,
          12.26,
          12.28,
          12.29,
          12.31,
          12.33,
          12.34,
          12.36,
          12.37,
          12.39,
          12.41,
          12.42,
          12.44,
          12.46,
          12.48,
          12.49,
          12.51,
          12.53,
          12.54,
          12.56,
          12.58,
          12.59,
          12.61,
          12.63,
          12.64,
          12.66,
          12.68,
          12.7,
          12.71,
          12.73,
          12.75,
          12.77,
          12.78,
          12.8,
          12.82,
          12.84,
          12.85,
          12.87,
          12.89,
          12.91,
          12.92,
          12.94,
          12.96,
          12.98,
          12.99,
          13.01,
          13.03,
          13.05,
          13.07,
          13.08,
          13.1,
          13.12,
          13.14,
          13.16,
          13.17,
          13.19,
          13.21,
          13.23,
          13.25,
          13.27,
          13.28,
          13.3,
          13.32,
          13.34,
          13.36,
          13.38,
          13.4,
          13.41,
          13.43,
          13.45,
          13.47,
          13.49,
          13.51,
          13.53,
          13.55,
          13.57,
          13.58,
          13.6,
          13.62,
          13.64,
          13.66,
          13.68,
          13.7,
          13.72,
          13.74,
          13.76,
          13.78,
          13.8,
          13.82,
          13.84,
          13.86,
          13.88,
          13.9,
          13.91,
          13.93,
          13.95,
          13.97,
          13.99,
          14.01,
          14.03,
          14.05,
          14.07,
          14.09,
          14.11,
          14.13,
          14.16,
          14.18,
          14.2,
          14.22,
          14.24,
          14.26,
          14.28,
          14.3,
          14.32,
          14.34,
          14.36,
          14.38,
          14.4,
          14.42,
          14.44,
          14.46,
          14.49,
          14.51,
          14.53,
          14.55,
          14.57,
          14.59,
          14.61,
          14.63,
          14.66,
          14.68,
          14.7,
          14.72,
          14.74,
          14.76,
          14.78,
          14.81,
          14.83,
          14.85,
          14.87,
          14.89,
          14.91,
          14.94,
          14.96,
          14.98,
          15.0,
          15.03,
          15.05,
          15.07,
          15.09,
          15.11,
          15.14,
          15.16,
          15.18,
          15.2,
          15.23,
          15.25,
          15.27,
          15.3,
          15.32,
          15.34,
          15.36,
          15.39,
          15.41,
          15.43,
          15.46,
          15.48,
          15.5,
          15.53,
          15.55,
          15.57,
          15.6,
          15.62,
          15.64,
          15.67,
          15.69,
          15.71,
          15.74,
          15.76,
          15.79,
          15.81,
          15.83,
          15.86,
          15.88,
          15.91,
          15.93,
          15.95,
          15.98,
          16.0,
          16.03,
          16.05,
          16.08,
          16.1,
          16.13,
          16.15,
          16.17,
          16.2,
          16.22,
          16.25,
          16.27,
          16.3,
          16.32,
          16.35,
          16.37,
          16.4,
          16.43,
          16.45,
          16.48,
          16.5,
          16.53,
          16.55,
          16.58,
          16.6,
          16.63,
          16.66,
          16.68,
          16.71,
          16.73,
          16.76,
          16.79,
          16.81,
          16.84,
          16.86,
          16.89,
          16.92,
          16.94,
          16.97,
          17.0,
          17.02,
          17.05,
          17.08,
          17.1,
          17.13,
          17.16,
          17.19,
          17.21,
          17.24,
          17.27,
          17.3,
          17.32,
          17.35,
          17.38,
          17.41,
          17.43,
          17.46,
          17.49,
          17.52,
          17.54,
          17.57,
          17.6,
          17.63,
          17.66,
          17.69,
          17.71,
          17.74,
          17.77,
          17.8,
          17.83,
          17.86,
          17.89,
          17.91,
          17.94,
          17.97,
          18.0,
          18.03,
          18.06,
          18.09,
          18.12,
          18.15,
          18.18,
          18.21,
          18.24,
          18.27,
          18.3,
          18.33,
          18.36,
          18.39,
          18.42,
          18.45,
          18.48,
          18.51,
          18.54,
          18.57,
          18.6,
          18.63,
          18.66,
          18.69,
          18.72,
          18.75,
          18.78,
          18.81,
          18.84,
          18.88,
          18.91,
          18.94,
          18.97,
          19.0,
          19.03,
          19.06,
          19.1,
          19.13,
          19.16,
          19.19,
          19.22,
          19.26,
          19.29,
          19.32,
          19.35,
          19.39,
          19.42,
          19.45,
          19.48,
          19.52,
          19.55,
          19.58,
          19.62,
          19.65,
          19.68,
          19.71,
          19.75,
          19.78,
          19.82,
          19.85,
          19.88,
          19.92,
          19.95,
          19.98,
          20.02,
          20.05,
          20.09,
          20.12,
          20.16,
          20.19,
          20.22,
          20.26,
          20.29,
          20.33,
          20.36,
          20.4,
          20.43,
          20.47,
          20.5,
          20.54,
          20.58,
          20.61,
          20.65,
          20.68,
          20.72,
          20.75,
          20.79,
          20.83,
          20.86,
          20.9,
          20.94,
          20.97,
          21.01,
          21.05,
          21.08,
          21.12,
          21.16,
          21.19,
          21.23,
          21.27,
          21.31,
          21.34,
          21.38,
          21.42,
          21.46,
          21.49,
          21.53,
          21.57,
          21.61,
          21.65,
          21.69,
          21.72,
          21.76,
          21.8,
          21.84,
          21.88,
          21.92,
          21.96,
          22.0,
          22.04,
          22.08,
          22.11,
          22.15,
          22.19,
          22.23,
          22.27,
          22.31,
          22.35,
          22.39,
          22.44,
          22.48,
          22.52,
          22.56,
          22.6,
          22.64,
          22.68,
          22.72,
          22.76,
          22.8,
          22.85,
          22.89,
          22.93,
          22.97,
          23.01,
          23.06,
          23.1,
          23.14,
          23.18,
          23.22,
          23.27,
          23.31,
          23.35,
          23.4,
          23.44,
          23.48,
          23.53,
          23.57,
          23.61,
          23.66,
          23.7,
          23.74,
          23.79,
          23.83,
          23.88,
          23.92,
          23.97,
          24.01,
          24.06,
          24.1,
          24.15,
          24.19,
          24.24,
          24.28,
          24.33,
          24.37,
          24.42,
          24.47,
          24.51,
          24.56,
          24.61,
          24.65,
          24.7,
          24.75,
          24.79,
          24.84,
          24.89,
          24.93,
          24.98,
          25.03,
          25.08,
          25.12,
          25.17,
          25.22,
          25.27,
          25.32,
          25.37,
          25.42,
          25.46,
          25.51,
          25.56,
          25.61,
          25.66,
          25.71,
          25.76,
          25.81,
          25.86,
          25.91,
          25.96,
          26.01,
          26.06,
          26.11,
          26.16,
          26.21,
          26.27,
          26.32,
          26.37,
          26.42,
          26.47,
          26.52,
          26.58,
          26.63,
          26.68,
          26.73,
          26.79,
          26.84,
          26.89,
          26.95,
          27.0,
          27.05,
          27.11,
          27.16,
          27.21,
          27.27,
          27.32,
          27.38,
          27.43,
          27.49,
          27.54,
          27.6,
          27.65,
          27.71,
          27.76,
          27.82,
          27.87,
          27.93,
          27.99,
          28.04,
          28.1,
          28.16,
          28.21,
          28.27,
          28.33,
          28.39,
          28.44,
          28.5,
          28.56,
          28.62,
          28.68,
          28.73,
          28.79,
          28.85,
          28.91,
          28.97,
          29.03,
          29.09,
          29.15,
          29.21,
          29.27,
          29.33,
          29.39,
          29.45,
          29.51,
          29.57,
          29.64,
          29.7,
          29.76,
          29.82,
          29.88,
          29.95,
          30.01,
          30.07,
          30.13,
          30.2,
          30.26,
          30.32,
          30.39,
          30.45,
          30.52,
          30.58,
          30.64,
          30.71,
          30.77,
          30.84,
          30.9,
          30.97,
          31.04,
          31.1,
          31.17,
          31.23,
          31.3,
          31.37,
          31.43,
          31.5,
          31.57,
          31.64,
          31.7,
          31.77,
          31.84,
          31.91,
          31.98,
          32.05,
          32.12,
          32.19,
          32.26,
          32.33,
          32.4,
          32.47,
          32.54,
          32.61,
          32.68,
          32.75,
          32.82,
          32.89,
          32.97,
          33.04,
          33.11,
          33.18,
          33.26,
          33.33,
          33.4,
          33.48,
          33.55,
          33.62,
          33.7,
          33.77,
          33.85,
          33.92,
          34.0,
          34.07,
          34.15,
          34.23,
          34.3,
          34.38,
          34.46,
          34.53,
          34.61,
          34.69,
          34.77,
          34.84,
          34.92,
          35.0,
          35.08,
          35.16,
          35.24,
          35.32,
          35.4,
          35.48,
          35.56,
          35.64,
          35.72,
          35.8,
          35.89,
          35.97,
          36.05,
          36.13,
          36.22,
          36.3,
          36.38,
          36.47,
          36.55,
          36.63,
          36.72,
          36.8,
          36.89,
          36.98,
          37.06,
          37.15,
          37.23,
          37.32,
          37.41,
          37.49,
          37.58,
          37.67,
          37.76,
          37.85,
          37.94,
          38.02,
          38.11,
          38.2,
          38.29,
          38.38,
          38.48,
          38.57,
          38.66,
          38.75,
          38.84,
          38.93,
          39.03,
          39.12,
          39.21,
          39.31,
          39.4,
          39.5,
          39.59,
          39.69,
          39.78,
          39.88,
          39.97,
          40.07,
          40.17,
          40.26,
          40.36,
          40.46,
          40.56,
          40.66,
          40.75,
          40.85,
          40.95,
          41.05,
          41.15,
          41.25,
          41.36,
          41.46,
          41.56,
          41.66,
          41.76,
          41.87,
          41.97,
          42.07,
          42.18,
          42.28,
          42.39,
          42.49,
          42.6,
          42.7,
          42.81,
          42.92,
          43.03,
          43.13,
          43.24,
          43.35,
          43.46,
          43.57,
          43.68,
          43.79,
          43.9,
          44.01,
          44.12,
          44.23,
          44.35,
          44.46,
          44.57,
          44.68,
          44.8,
          44.91,
          45.03,
          45.14,
          45.26,
          45.38,
          45.49,
          45.61,
          45.73,
          45.84,
          45.96,
          46.08,
          46.2,
          46.32,
          46.44,
          46.56,
          46.68,
          46.81,
          46.93,
          47.05,
          47.17,
          47.3,
          47.42,
          47.55,
          47.67,
          47.8,
          47.92,
          48.05,
          48.18,
          48.3,
          48.43,
          48.56,
          48.69,
          48.82,
          48.95,
          49.08,
          49.21,
          49.34,
          49.48,
          49.61,
          49.74,
          49.88,
          50.01,
          50.15,
          50.28,
          50.42,
          50.55,
          50.69,
          50.83,
          50.97,
          51.11,
          51.25,
          51.39,
          51.53,
          51.67,
          51.81,
          51.95,
          52.1,
          52.24,
          52.38,
          52.53,
          52.67,
          52.82,
          52.97,
          53.11,
          53.26,
          53.41,
          53.56,
          53.71,
          53.86,
          54.01,
          54.16,
          54.31,
          54.46,
          54.62,
          54.77,
          54.93,
          55.08,
          55.24,
          55.4,
          55.55,
          55.71,
          55.87,
          56.03,
          56.19,
          56.35,
          56.51,
          56.67,
          56.84,
          57.0,
          57.16,
          57.33,
          57.5,
          57.66,
          57.83,
          58.0,
          58.17,
          58.33,
          58.5,
          58.68,
          58.85,
          59.02,
          59.19,
          59.37,
          59.54,
          59.72,
          59.89,
          60.07,
          60.25,
          60.43,
          60.61,
          60.79,
          60.97,
          61.15,
          61.33,
          61.51,
          61.7,
          61.88,
          62.07,
          62.26,
          62.44,
          62.63,
          62.82,
          63.01,
          63.2,
          63.39,
          63.59,
          63.78,
          63.98,
          64.17,
          64.37,
          64.56,
          64.76,
          64.96,
          65.16,
          65.36,
          65.56,
          65.77,
          65.97,
          66.17,
          66.38,
          66.59,
          66.79,
          67.0,
          67.21,
          67.42,
          67.63,
          67.85,
          68.06,
          68.27,
          68.49,
          68.71,
          68.92,
          69.14,
          69.36,
          69.58,
          69.8,
          70.03,
          70.25,
          70.48,
          70.7,
          70.93,
          71.16,
          71.39,
          71.62,
          71.85,
          72.08,
          72.31,
          72.55,
          72.78,
          73.02,
          73.26,
          73.5,
          73.74,
          73.98,
          74.23,
          74.47,
          74.71,
          74.96,
          75.21,
          75.46,
          75.71,
          75.96,
          76.21,
          76.47,
          76.72,
          76.98,
          77.24,
          77.5,
          77.76,
          78.02,
          78.28,
          78.55,
          78.81,
          79.08,
          79.35,
          79.62,
          79.89,
          80.16,
          80.44,
          80.71,
          80.99,
          81.27,
          81.55,
          81.83,
          82.11,
          82.4,
          82.68,
          82.97,
          83.26,
          83.55,
          83.84,
          84.13,
          84.43,
          84.72,
          85.02,
          85.32,
          85.62,
          85.92,
          86.23,
          86.53,
          86.84,
          87.15,
          87.46,
          87.77,
          88.09,
          88.4,
          88.72,
          89.04,
          89.36,
          89.68,
          90.01,
          90.33,
          90.66,
          90.99,
          91.32,
          91.66,
          91.99,
          92.33,
          92.67,
          93.01,
          93.35,
          93.7,
          94.04,
          94.39,
          94.74,
          95.09,
          95.45,
          95.8,
          96.16,
          96.52,
          96.89,
          97.25,
          97.62,
          97.98,
          98.36,
          98.73,
          99.1,
          99.48,
          99.86,
          100.2,
          100.6,
          101.0,
          101.4,
          101.8,
          102.2,
          102.6,
          103.0,
          103.4,
          103.8,
          104.2,
          104.6,
          105.0,
          105.4,
          105.8,
          106.2,
          106.6,
          107.1,
          107.5,
          107.9,
          108.3,
          108.8,
          109.2,
          109.6,
          110.1,
          110.5,
          111.0,
          111.4,
          111.9,
          112.3,
          112.8,
          113.2,
          113.7,
          114.2,
          114.6,
          115.1,
          115.6,
          116.0,
          116.5,
          117.0,
          117.5,
          118.0,
          118.5,
          118.9,
          119.4,
          119.9,
          120.4,
          121.0,
          121.5,
          122.0,
          122.5,
          123.0,
          123.5,
          124.1,
          124.6,
          125.1,
          125.6,
          126.2,
          126.7,
          127.3,
          127.8,
          128.4,
          128.9,
          129.5,
          130.0,
          130.6,
          131.2,
          131.8,
          132.3,
          132.9,
          133.5,
          134.1,
          134.7,
          135.3,
          135.9,
          136.5,
          137.1,
          137.7,
          138.3,
          139.0,
          139.6,
          140.2,
          140.8,
          141.5,
          142.1,
          142.8,
          143.4,
          144.1,
          144.7,
          145.4,
          146.1,
          146.8,
          147.4,
          148.1,
          148.8,
          149.5,
          150.2,
          150.9,
          151.6,
          152.3,
          153.1,
          153.8,
          154.5,
          155.2,
          156.0,
          156.7,
          157.5,
          158.2,
          159.0,
          159.8,
          160.5,
          161.3,
          162.1,
          162.9,
          163.7,
          164.5,
          165.3,
          166.1,
          166.9,
          167.7,
          168.6
        ],
        [
          56.91,
          56.96,
          57.24,
          58.6,
          59.34,
          61.13,
          63.32,
          63.47,
          66.83,
          68.79,
          71.84,
          74.84,
          76.79,
          77.1,
          80.09,
          84.37,
          87.42,
          91.97,
          97.89,
          102.2,
          109.6,
          112.6,
          114.9,
          115.3,
          106.5,
          96.36,
          86.52,
          76.51,
          64.88,
          56.49,
          47.52,
          40.67,
          36.76,
          33.26,
          28.08,
          27.27,
          24.6,
          24.63,
          22.05,
          23.6,
          23.39,
          22.34,
          19.65,
          19.9,
          19.43,
          17.28,
          18.26,
          16.95,
          16.93,
          16.35,
          15.81,
          17.03,
          14.36,
          14.72,
          14.57,
          14.47,
          15.2,
          14.18,
          14.16,
          14.67,
          16.06,
          13.9,
          13.84,
          12.5,
          13.14,
          13.86,
          13.36,
          12.94,
          12.57,
          13.31,
          13.74,
          12.66,
          12.82,
          12.72,
          12.78,
          12.85,
          13.05,
          12.72,
          13.93,
          13.63,
          14.25,
          14.91,
          18.12,
          18.8,
          19.71,
          20.74,
          22.33,
          25.33,
          28.64,
          28.89,
          26.58,
          25.51,
          24.21,
          23.25,
          22.19,
          20.09,
          18.35,
          17.64,
          18.07,
          14.73,
          14.6,
          14.56,
          13.5,
          13.41,
          12.38,
          12.37,
          11.87,
          11.67,
          11.88,
          10.95,
          11.63,
          10.89,
          11.24,
          11.93,
          10.21,
          10.59,
          10.51,
          9.68,
          10.09,
          10.05,
          11.05,
          9.014,
          9.911,
          9.308,
          8.969,
          8.397,
          8.861,
          7.675,
          8.429,
          7.794,
          9.211,
          9.094,
          7.836,
          8.167,
          7.285,
          6.983,
          6.255,
          6.255,
          7.232,
          8.652,
          10.09,
          12.67,
          15.0,
          16.64,
          18.33,
          18.46,
          19.12,
          20.18,
          20.76,
          23.68,
          25.99,
          28.33,
          33.22,
          35.55,
          38.3,
          41.23,
          40.9,
          42.73,
          47.62,
          48.81,
          48.83,
          53.06,
          52.17,
          56.12,
          55.59,
          52.38,
          53.81,
          49.19,
          45.92,
          42.66,
          36.75,
          37.84,
          33.11,
          31.73,
          29.57,
          27.42,
          25.1,
          24.01,
          24.85,
          21.67,
          22.68,
          20.12,
          19.92,
          19.37,
          20.64,
          18.53,
          18.07,
          18.99,
          19.48,
          19.8,
          19.86,
          20.34,
          21.51,
          22.94,
          23.93,
          23.81,
          24.37,
          28.93,
          28.55,
          31.65,
          32.96,
          36.13,
          39.29,
          43.37,
          48.53,
          50.82,
          58.73,
          62.34,
          72.55,
          82.83,
          87.72,
          94.19,
          91.31,
          89.44,
          84.49,
          78.4,
          67.28,
          57.01,
          51.06,
          38.62,
          32.14,
          27.48,
          23.01,
          16.82,
          13.52,
          11.7,
          10.22,
          8.325,
          6.358,
          7.0,
          6.178,
          5.926,
          5.918,
          5.83,
          5.094,
          5.814,
          4.919,
          4.107,
          4.263,
          3.534,
          4.091,
          3.525,
          4.481,
          4.075,
          3.352,
          3.507,
          2.388,
          4.293,
          3.89,
          3.964,
          3.88,
          2.214,
          3.712,
          2.998,
          3.073,
          2.833,
          2.986,
          2.982,
          2.9,
          3.053,
          3.597,
          4.139,
          3.588,
          3.739,
          2.879,
          3.186,
          4.113,
          3.643,
          2.625,
          2.612,
          2.754,
          2.279,
          2.883,
          2.947,
          3.473,
          2.307,
          2.832,
          3.587,
          2.807,
          2.794,
          3.47,
          3.992,
          3.444,
          2.363,
          2.732,
          2.948,
          2.935,
          2.619,
          3.289,
          3.883,
          3.415,
          3.553,
          3.843,
          2.999,
          3.59,
          3.652,
          4.166,
          3.927,
          5.867,
          5.101,
          7.037,
          7.171,
          10.52,
          13.2,
          16.09,
          18.01,
          21.56,
          21.31,
          20.83,
          16.94,
          12.75,
          10.8,
          8.107,
          4.755,
          6.074,
          5.023,
          4.492,
          4.7,
          5.277,
          5.651,
          6.519,
          4.215,
          6.195,
          5.921,
          6.798,
          6.981,
          7.996,
          9.075,
          8.719,
          8.441,
          8.537,
          11.22,
          12.55,
          9.918,
          12.26,
          12.7,
          13.71,
          14.71,
          15.99,
          15.41,
          18.37,
          18.07,
          18.19,
          17.05,
          18.28,
          17.23,
          18.17,
          17.67,
          17.86,
          16.35,
          18.57,
          17.75,
          16.05,
          15.98,
          16.44,
          16.5,
          15.17,
          16.28,
          16.93,
          17.12,
          16.66,
          18.53,
          18.51,
          18.63,
          21.82,
          21.03,
          22.66,
          24.79,
          28.61,
          29.32,
          33.28,
          36.41,
          40.95,
          44.4,
          47.09,
          49.33,
          53.46,
          56.16,
          55.0,
          58.41,
          71.56,
          92.74,
          109.6,
          118.8,
          114.0,
          94.88,
          67.49,
          43.34,
          27.57,
          18.1,
          14.27,
          10.23,
          9.608,
          8.932,
          8.726,
          8.463,
          7.622,
          8.404,
          8.432,
          8.404,
          10.55,
          9.95,
          29.08,
          31.57,
          29.61,
          37.18,
          35.8,
          39.91,
          46.51,
          49.96,
          52.35,
          59.45,
          62.42,
          66.36,
          67.17,
          76.02,
          77.0,
          80.91,
          89.67,
          94.73,
          88.02,
          90.59,
          86.71,
          85.42,
          82.3,
          74.48,
          73.09,
          65.75,
          63.29,
          55.57,
          49.01,
          48.16,
          42.53,
          46.7,
          34.48,
          27.57,
          28.16,
          25.02,
          20.17,
          15.11,
          16.68,
          15.87,
          12.12,
          13.18,
          12.32,
          10.68,
          10.21,
          9.189,
          9.292,
          10.52,
          9.271,
          9.037,
          9.475,
          8.681,
          7.218,
          7.768,
          7.089,
          8.419,
          7.073,
          7.732,
          7.668,
          7.714,
          5.153,
          5.645,
          6.081,
          6.129,
          7.283,
          5.949,
          7.045,
          6.761,
          5.596,
          7.075,
          5.967,
          7.882,
          5.952,
          4.684,
          6.704,
          5.164,
          5.978,
          5.588,
          5.144,
          4.92,
          4.641,
          5.016,
          5.824,
          5.329,
          5.43,
          5.64,
          6.607,
          6.221,
          5.024,
          8.151,
          5.173,
          4.143,
          4.137,
          4.454,
          4.985,
          3.798,
          5.347,
          5.555,
          6.511,
          6.129,
          4.946,
          8.055,
          5.093,
          4.074,
          4.068,
          4.382,
          4.907,
          3.733,
          3.993,
          4.94,
          3.188,
          5.191,
          3.759,
          4.07,
          4.064,
          3.532,
          4.789,
          4.363,
          3.832,
          2.83,
          2.93,
          3.606,
          3.601,
          3.334,
          3.59,
          4.106,
          3.892,
          3.575,
          2.53,
          4.758,
          4.181,
          4.072,
          4.532,
          4.267,
          4.261,
          5.183,
          3.218,
          4.655,
          5.369,
          5.875,
          6.381,
          3.809,
          5.135,
          3.286,
          6.093,
          5.983,
          6.23,
          6.63,
          5.603,
          6.054,
          5.792,
          6.596,
          7.653,
          6.377,
          6.47,
          9.191,
          7.564,
          6.495,
          7.394,
          6.982,
          9.789,
          8.924,
          9.214,
          9.453,
          7.939,
          6.679,
          9.069,
          9.358,
          9.396,
          9.136,
          10.92,
          9.859,
          9.847,
          11.08,
          11.81,
          12.58,
          13.61,
          14.28,
          14.76,
          16.47,
          13.59,
          14.9,
          16.71,
          18.94,
          16.86,
          20.81,
          24.07,
          22.77,
          22.89,
          24.18,
          26.0,
          30.21,
          28.72,
          32.42,
          32.43,
          36.13,
          37.4,
          40.16,
          44.61,
          45.43,
          50.44,
          58.57,
          61.19,
          63.96,
          70.66,
          75.08,
          86.06,
          92.86,
          74.13,
          145.6,
          124.5,
          136.0,
          154.1,
          167.8,
          188.1,
          205.6,
          235.7,
          262.5,
          289.0,
          312.6,
          346.6,
          380.3,
          413.1,
          430.0,
          470.3,
          513.5,
          530.0,
          554.5,
          586.2,
          588.0,
          591.8,
          580.2,
          578.1,
          562.7,
          551.2,
          531.4,
          492.2,
          458.1,
          423.6,
          395.4,
          354.4,
          324.5,
          301.9,
          277.8,
          243.3,
          232.2,
          209.9,
          193.7,
          178.6,
          162.3,
          157.4,
          152.7,
          97.86,
          94.31,
          95.95,
          99.82,
          107.5,
          113.4,
          115.4,
          109.3,
          89.71,
          77.45,
          63.41,
          54.31,
          51.19,
          47.1,
          46.08,
          44.53,
          41.93,
          41.67,
          41.11,
          39.58,
          36.76,
          35.39,
          31.74,
          30.31,
          27.16,
          25.71,
          24.56,
          24.79,
          30.54,
          32.92,
          37.83,
          41.4,
          42.71,
          38.07,
          32.25,
          26.73,
          23.89,
          20.42,
          18.21,
          19.11,
          17.96,
          17.52,
          16.96,
          15.4,
          15.57,
          16.19,
          16.9,
          16.79,
          15.42,
          15.71,
          15.78,
          15.6,
          14.24,
          14.46,
          14.01,
          14.05,
          15.26,
          14.51,
          14.34,
          14.89,
          16.1,
          17.28,
          20.32,
          24.58,
          32.25,
          35.33,
          17.78,
          36.51,
          41.63,
          45.55,
          49.03,
          50.92,
          56.48,
          61.34,
          57.55,
          60.2,
          60.76,
          56.9,
          55.13,
          48.28,
          41.75,
          33.39,
          30.72,
          25.18,
          22.02,
          19.21,
          18.78,
          18.22,
          16.91,
          16.52,
          16.12,
          17.21,
          17.38,
          17.44,
          17.58,
          22.65,
          22.4,
          23.44,
          25.16,
          26.69,
          28.89,
          32.08,
          35.33,
          38.8,
          42.87,
          49.38,
          55.05,
          63.26,
          69.63,
          83.14,
          93.59,
          111.6,
          123.3,
          148.3,
          172.3,
          216.3,
          253.2,
          292.5,
          287.4,
          315.5,
          323.2,
          312.8,
          287.8,
          265.7,
          242.5,
          202.1,
          169.2,
          132.4,
          108.6,
          82.96,
          68.27,
          55.21,
          43.14,
          33.66,
          30.91,
          29.38,
          30.46,
          29.37,
          26.71,
          30.27,
          29.62,
          29.52,
          29.75,
          32.71,
          31.81,
          32.83,
          33.06,
          32.52,
          32.24,
          31.56,
          34.07,
          34.72,
          30.57,
          26.5,
          23.15,
          24.07,
          22.86,
          21.22,
          21.77,
          20.13,
          20.66,
          22.68,
          22.02,
          18.27,
          24.87,
          26.89,
          27.97,
          28.02,
          27.64,
          29.72,
          29.44,
          30.55,
          30.67,
          29.72,
          29.02,
          26.79,
          30.31,
          29.11,
          27.25,
          29.91,
          29.18,
          30.17,
          31.1,
          31.03,
          37.16,
          36.88,
          40.54,
          41.06,
          45.37,
          49.5,
          51.34,
          54.9,
          54.89,
          59.79,
          62.77,
          65.61,
          71.3,
          70.47,
          74.16,
          74.96,
          78.01,
          77.91,
          81.44,
          84.45,
          84.1,
          89.17,
          87.54,
          90.59,
          89.55,
          88.64,
          84.54,
          83.72,
          82.73,
          81.95,
          74.94,
          72.53,
          70.1,
          63.78,
          62.22,
          60.26,
          56.18,
          49.53,
          50.29,
          49.3,
          45.23,
          44.65,
          42.87,
          41.86,
          21.74,
          23.23,
          41.61,
          44.3,
          40.35,
          41.34,
          37.55,
          37.47,
          33.64,
          31.05,
          26.92,
          21.13,
          18.11,
          16.66,
          14.72,
          13.78,
          13.37,
          11.8,
          13.12,
          12.71,
          14.58,
          12.83,
          12.52,
          11.5,
          13.65,
          11.92,
          11.99,
          14.6,
          12.51,
          13.35,
          15.1,
          15.63,
          17.52,
          18.58,
          20.52,
          21.63,
          21.84,
          26.36,
          31.23,
          36.13,
          38.49,
          44.43,
          47.27,
          52.55,
          54.48,
          58.28,
          58.57,
          55.06,
          49.05,
          42.53,
          34.78,
          28.55,
          22.21,
          17.21,
          14.36,
          12.48,
          10.04,
          10.39,
          9.253,
          9.24,
          11.11,
          12.23,
          12.44,
          14.81,
          15.45,
          18.56,
          22.73,
          26.22,
          31.32,
          36.01,
          43.2,
          49.62,
          55.69,
          61.45,
          59.82,
          58.19,
          56.65,
          47.74,
          36.63,
          32.2,
          24.05,
          18.08,
          15.35,
          10.97,
          11.5,
          13.47,
          14.71,
          17.36,
          21.91,
          25.4,
          30.26,
          35.21,
          42.72,
          50.66,
          55.26,
          64.81,
          64.35,
          67.96,
          64.59,
          61.75,
          57.8,
          52.94,
          41.81,
          35.99,
          32.09,
          26.95,
          21.63,
          18.36,
          16.4,
          16.22,
          15.41,
          15.07,
          12.28,
          12.36,
          11.19,
          10.95,
          9.477,
          9.644,
          9.059,
          8.851,
          8.27,
          8.875,
          8.044,
          7.651,
          8.373,
          9.153,
          8.637,
          8.768,
          8.653,
          9.577,
          9.621,
          9.635,
          10.6,
          12.43,
          14.78,
          15.52,
          16.93,
          21.03,
          23.77,
          29.84,
          36.02,
          43.59,
          49.16,
          60.69,
          63.01,
          75.27,
          77.56,
          80.78,
          78.19,
          74.46,
          69.33,
          60.25,
          53.34,
          43.54,
          37.66,
          31.2,
          28.52,
          27.62,
          24.67,
          21.58,
          22.1,
          21.98,
          22.25,
          21.91,
          21.17,
          21.4,
          23.25,
          24.28,
          25.62,
          28.91,
          30.85,
          33.88,
          36.27,
          42.4,
          50.31,
          53.11,
          68.11,
          83.44,
          96.88,
          125.0,
          148.5,
          187.0,
          226.1,
          281.3,
          314.9,
          406.3,
          456.8,
          497.4,
          507.1,
          481.8,
          422.0,
          353.5,
          276.7,
          202.7,
          152.1,
          110.7,
          85.45,
          67.25,
          53.56,
          47.35,
          41.35,
          38.14,
          33.52,
          31.66,
          30.19,
          29.14,
          29.79,
          30.6,
          33.86,
          33.01,
          27.81,
          30.1,
          29.23,
          30.45,
          28.48,
          27.69,
          25.31,
          26.41,
          25.82,
          24.38,
          25.26,
          25.75,
          26.6,
          31.01,
          35.89,
          37.98,
          41.36,
          41.9,
          43.79,
          45.13,
          44.62,
          45.78,
          53.08,
          64.62,
          80.06,
          97.18,
          116.6,
          142.9,
          160.2,
          165.9,
          155.3,
          131.4,
          103.5,
          79.2,
          55.07,
          34.99,
          28.03,
          20.84,
          16.52,
          16.09,
          14.04,
          12.53,
          11.26,
          10.73,
          11.19,
          10.24,
          10.4,
          9.731,
          10.59,
          8.085,
          9.028,
          9.041,
          8.918,
          9.447,
          9.324,
          8.495,
          7.904,
          7.829,
          7.808,
          8.726,
          8.89,
          8.867,
          9.642,
          9.51,
          10.41,
          11.76,
          13.28,
          13.8,
          17.09,
          21.47,
          24.95,
          31.6,
          37.49,
          45.12,
          50.48,
          60.8,
          68.0,
          63.06,
          59.39,
          53.74,
          46.75,
          42.62,
          43.46,
          45.92,
          53.42,
          63.09,
          72.19,
          83.98,
          93.6,
          101.6,
          103.3,
          105.9,
          105.3,
          103.8,
          94.76,
          86.99,
          70.98,
          61.17,
          50.75,
          41.8,
          39.45,
          37.84,
          36.55,
          38.91,
          43.69,
          50.43,
          55.13,
          59.5,
          57.49,
          55.63,
          51.09,
          47.35,
          43.27,
          41.53,
          39.03,
          38.24,
          38.62,
          39.37,
          39.47,
          41.47,
          44.12,
          44.92,
          49.52,
          51.28,
          52.68,
          55.97,
          58.38,
          65.78,
          68.15,
          69.35,
          74.76,
          74.76,
          78.6,
          76.23,
          75.99,
          75.31,
          69.18,
          61.51,
          55.54,
          49.16,
          40.62,
          35.29,
          29.49,
          25.31,
          26.68,
          26.51,
          29.2,
          33.62,
          40.72,
          46.66,
          54.85,
          62.07,
          65.64,
          61.32,
          59.31,
          52.82,
          45.43,
          39.34,
          32.07,
          28.25,
          25.55,
          23.63,
          19.7,
          21.43,
          21.33,
          22.39,
          20.84,
          21.82,
          21.06,
          22.55,
          24.57,
          30.55,
          36.42,
          47.02,
          56.38,
          66.67,
          74.45,
          74.32,
          66.6,
          58.72,
          46.17,
          35.82,
          31.2,
          28.02,
          27.64,
          28.57,
          27.42,
          24.73,
          25.02,
          21.42,
          18.34,
          16.29,
          14.96,
          13.26,
          11.7,
          10.51,
          9.361,
          8.855,
          8.144,
          9.077,
          8.83,
          8.63,
          9.315,
          9.409,
          10.97,
          12.69,
          14.37,
          18.93,
          15.61,
          14.13,
          11.3,
          8.982,
          6.874,
          6.784,
          6.695,
          6.781,
          9.254,
          10.61,
          14.88,
          15.65,
          19.72,
          24.04,
          28.57,
          34.77,
          34.97,
          34.19,
          35.78,
          35.31,
          29.39,
          22.24,
          15.5,
          10.71,
          8.106,
          8.094,
          9.175,
          10.7,
          13.3,
          18.55,
          27.6,
          37.53,
          49.74,
          64.42,
          83.34,
          102.8,
          121.8,
          127.0,
          113.7,
          85.99,
          57.77,
          33.57,
          20.13,
          12.55,
          9.344,
          8.818,
          9.371,
          7.554,
          9.904,
          11.28,
          15.03,
          21.94,
          29.37,
          37.15,
          52.05,
          68.14,
          86.42,
          95.19,
          90.44,
          74.25,
          57.31,
          42.2,
          40.85,
          44.5,
          59.35,
          75.0,
          101.1,
          126.1,
          148.8,
          159.4,
          159.2,
          156.1,
          160.2,
          172.0,
          200.4,
          222.0,
          257.1,
          285.5,
          305.1,
          300.8,
          269.4,
          213.1,
          157.6,
          107.6,
          77.22,
          59.18,
          47.21,
          40.2,
          35.58,
          30.5,
          28.27,
          26.59,
          23.51,
          22.79,
          21.42,
          20.5,
          18.66,
          17.72,
          17.55,
          16.64,
          16.68,
          16.12,
          14.71,
          15.85,
          15.34,
          16.9,
          16.77,
          17.29,
          17.48,
          20.05,
          22.57,
          23.67,
          24.42,
          25.7,
          29.41,
          29.79,
          29.24,
          26.61,
          25.26,
          24.41,
          26.37,
          29.29,
          36.97,
          53.95,
          71.97,
          98.94,
          122.6,
          144.3,
          141.0,
          112.6,
          76.39,
          51.79,
          39.5,
          32.94,
          29.46,
          25.5,
          25.6,
          27.32,
          29.9,
          33.05,
          32.63,
          33.51,
          31.16,
          31.69,
          33.23,
          37.13,
          41.09,
          43.07,
          46.94,
          50.99,
          52.95,
          52.22,
          53.38,
          50.85,
          45.54,
          40.33,
          34.96,
          30.09,
          24.45,
          21.85,
          19.35,
          18.58,
          18.7,
          19.56,
          22.12,
          25.33,
          32.2,
          35.63,
          34.69,
          35.38,
          36.76,
          38.12,
          43.86,
          44.18,
          45.74,
          48.51,
          54.44,
          59.69,
          61.47,
          55.72,
          49.1,
          40.88,
          33.33,
          27.55,
          22.82,
          19.23,
          18.05,
          18.17,
          16.88,
          16.94,
          15.65,
          17.05,
          21.21,
          28.27,
          38.52,
          50.73,
          60.19,
          63.4,
          59.06,
          47.91,
          32.75,
          27.38,
          26.97,
          32.03,
          41.58,
          51.18,
          59.62,
          60.8,
          60.18,
          53.61,
          49.02,
          45.31,
          45.2,
          39.77,
          36.49,
          30.73,
          30.11,
          28.32,
          27.37,
          24.6,
          26.15,
          32.95,
          41.23,
          51.72,
          60.8,
          68.93,
          77.73,
          84.54,
          100.5,
          119.8,
          132.2,
          128.4,
          108.9,
          89.19,
          80.36,
          82.43,
          88.5,
          83.15,
          74.66,
          59.98,
          42.97,
          30.57,
          27.27,
          26.57,
          29.16,
          31.5,
          31.79,
          26.42,
          22.46,
          22.62,
          25.49,
          30.91,
          39.11,
          51.83,
          69.46,
          87.49,
          97.97,
          96.76,
          91.7,
          101.5,
          121.3,
          139.8,
          153.6,
          157.3,
          159.6,
          149.0,
          115.2,
          74.61,
          45.18,
          37.02,
          40.29,
          49.92,
          60.36,
          69.17,
          70.25,
          64.15,
          54.18,
          50.39,
          48.03,
          39.93,
          31.1,
          25.13,
          23.8,
          27.27,
          33.55,
          39.81,
          45.38,
          43.41,
          38.9,
          35.08,
          33.0,
          30.93,
          27.19,
          24.51,
          20.48,
          19.15,
          17.64,
          17.36,
          16.94,
          16.92,
          17.64,
          18.15,
          21.38,
          23.32,
          24.47,
          25.91,
          25.72,
          21.79,
          19.46,
          15.12,
          13.86,
          8.755,
          8.081,
          7.809,
          9.305,
          9.544,
          12.09,
          12.92,
          12.11,
          9.6,
          8.133,
          5.941,
          5.115,
          4.958,
          5.573,
          5.046,
          6.177,
          7.422,
          9.2,
          11.37,
          16.04,
          20.14,
          28.13,
          33.47,
          41.37,
          54.99,
          67.99,
          81.99,
          85.59,
          77.58,
          54.86,
          36.96,
          30.58,
          30.36,
          39.03,
          50.45,
          56.96,
          48.09,
          32.42,
          19.67,
          15.43,
          18.69,
          24.02,
          35.56,
          48.53,
          58.67,
          59.22,
          50.57,
          43.97,
          36.63,
          27.49,
          16.89,
          11.77,
          11.95,
          14.87,
          19.47,
          24.93,
          28.57,
          28.48,
          27.57,
          22.7,
          17.64,
          14.88,
          15.72,
          19.02,
          20.67,
          21.92,
          22.45,
          20.33,
          19.05,
          19.24,
          20.54,
          20.04,
          17.64,
          20.59,
          24.04,
          32.23,
          38.91,
          48.22,
          60.1,
          68.96,
          68.01,
          58.07,
          40.14,
          33.1,
          25.78,
          20.57,
          16.7,
          15.25,
          16.61,
          19.47,
          23.2,
          26.42,
          29.39,
          35.63,
          38.81,
          38.61,
          28.39,
          22.35,
          25.42,
          31.89,
          41.6,
          48.65,
          50.6,
          49.47,
          40.39,
          35.53,
          31.27,
          28.69,
          20.1,
          16.52,
          17.48,
          17.91,
          19.33,
          20.43,
          21.65,
          21.51,
          21.05,
          19.6,
          18.34,
          18.95,
          23.03,
          28.4,
          30.28,
          12.87,
          14.93,
          11.65,
          13.39,
          13.45,
          13.29,
          12.68,
          12.82,
          13.88,
          17.2,
          25.25,
          32.26,
          36.08,
          31.05,
          26.42,
          25.19,
          30.35,
          32.78,
          30.12,
          23.76,
          20.0,
          19.06,
          18.91,
          20.46,
          17.72,
          14.56,
          14.22,
          14.27,
          14.18,
          13.08,
          11.02,
          10.35,
          10.96,
          11.13,
          11.54,
          13.65,
          16.02,
          14.79,
          15.42,
          18.62,
          24.95,
          31.2,
          28.79,
          25.34,
          26.93,
          34.39,
          39.01,
          34.91,
          24.79,
          17.46,
          19.99,
          27.68,
          39.22,
          46.45,
          37.3,
          24.11,
          20.0,
          24.05,
          32.12,
          42.09,
          49.28,
          51.81,
          44.44,
          30.0,
          22.35,
          19.41,
          17.19,
          17.16,
          19.42,
          25.91,
          35.58,
          40.24,
          41.58,
          42.13,
          42.05,
          43.3,
          45.63,
          48.65,
          42.94,
          29.62,
          19.57,
          15.05,
          12.45,
          10.71,
          13.61,
          16.77,
          20.48,
          23.91,
          24.7,
          20.81,
          15.8,
          15.53,
          22.27,
          27.84,
          27.28,
          23.68,
          22.55,
          23.31,
          25.76,
          25.29,
          19.93,
          13.54,
          12.16,
          13.93,
          19.87,
          22.75,
          20.61,
          21.47,
          23.33,
          22.7,
          21.14,
          20.04,
          20.72,
          19.73,
          18.48,
          20.32,
          21.36,
          23.02,
          24.31,
          22.04,
          23.03,
          26.25,
          27.84,
          27.74,
          25.85,
          20.69
        ],
        [
          5.6999,
          5.5999,
          5.8999,
          5.7999,
          5.3999,
          5.2999,
          5.1999,
          5.1999,
          5.1999,
          4.8999,
          4.7999,
          4.7999,
          4.5999,
          4.5999,
          4.4999,
          4.2999,
          4.2999,
          3.9999,
          3.9999,
          3.9999,
          3.9999,
          3.6999,
          3.6999,
          3.5999,
          3.7999,
          3.9999,
          3.9999,
          4.2999,
          4.5999,
          4.9999,
          5.5999,
          6.1999,
          6.4999,
          6.3999,
          6.9999,
          6.8999,
          8.1999,
          7.0999,
          9.0999,
          8.0999,
          8.3999,
          8.3999,
          8.3999,
          8.9999,
          8.5999,
          9.3999,
          8.8999,
          9.1999,
          9.6999,
          9.7999,
          9.5999,
          8.8999,
          10.299,
          9.6999,
          10.299,
          10.199,
          9.6999,
          10.799,
          9.8999,
          10.499,
          9.7999,
          9.7999,
          9.9999,
          11.099,
          9.9999,
          9.5999,
          10.799,
          10.299,
          9.9999,
          10.199,
          9.8999,
          10.199,
          10.799,
          10.699,
          10.399,
          9.5999,
          10.499,
          10.199,
          9.4999,
          9.0999,
          9.3999,
          8.9999,
          8.0999,
          13.899,
          13.199,
          12.799,
          12.199,
          11.299,
          12.199,
          10.499,
          10.499,
          10.899,
          11.199,
          11.499,
          11.799,
          12.099,
          12.899,
          13.599,
          13.899,
          13.699,
          15.699,
          8.3999,
          9.0999,
          9.9999,
          10.299,
          9.6999,
          10.499,
          10.199,
          9.9999,
          11.399,
          10.099,
          11.099,
          10.099,
          9.9999,
          11.499,
          10.799,
          10.699,
          11.799,
          11.299,
          11.499,
          10.699,
          11.999,
          11.299,
          13.299,
          10.999,
          11.399,
          12.599,
          12.399,
          12.899,
          12.599,
          12.599,
          11.099,
          12.799,
          11.999,
          13.399,
          13.399,
          13.299,
          13.899,
          13.599,
          10.599,
          11.099,
          9.2999,
          7.8999,
          7.4999,
          6.9999,
          7.3999,
          6.7999,
          6.5999,
          6.4999,
          5.7999,
          5.3999,
          5.4999,
          4.8999,
          8.1999,
          7.7999,
          7.5999,
          7.5999,
          7.3999,
          6.9999,
          6.8999,
          6.8999,
          6.5999,
          6.6999,
          6.4999,
          6.4999,
          6.6999,
          6.5999,
          6.8999,
          7.0999,
          7.3999,
          7.8999,
          7.7999,
          8.3999,
          8.5999,
          8.8999,
          9.1999,
          9.5999,
          9.8999,
          9.6999,
          10.399,
          10.199,
          10.899,
          10.899,
          11.099,
          10.699,
          11.399,
          11.499,
          11.199,
          10.999,
          10.899,
          10.899,
          10.699,
          10.399,
          9.9999,
          9.6999,
          9.7999,
          9.5999,
          8.7999,
          8.7999,
          8.2999,
          8.1999,
          7.7999,
          7.4999,
          7.0999,
          6.6999,
          6.5999,
          6.1999,
          5.9999,
          5.5999,
          5.2999,
          5.1999,
          4.9999,
          5.0999,
          5.0999,
          5.1999,
          5.3999,
          5.7999,
          6.1999,
          6.4999,
          7.3999,
          8.1999,
          8.8999,
          9.7999,
          11.699,
          13.399,
          14.499,
          15.799,
          18.099,
          21.899,
          20.399,
          22.299,
          22.999,
          22.999,
          23.099,
          25.499,
          22.999,
          25.999,
          29.899,
          28.999,
          33.499,
          29.899,
          33.499,
          27.899,
          29.899,
          34.799,
          33.499,
          44.999,
          28.599,
          30.799,
          30.299,
          30.799,
          48.199,
          31.799,
          37.699,
          36.899,
          39.199,
          37.599,
          37.699,
          38.499,
          36.799,
          32.399,
          29.199,
          32.399,
          31.599,
          38.399,
          35.399,
          29.199,
          31.099,
          41.599,
          40.999,
          39.199,
          46.099,
          38.099,
          37.399,
          33.299,
          39.999,
          39.499,
          32.199,
          39.299,
          39.099,
          33.099,
          30.499,
          33.499,
          45.399,
          40.299,
          37.899,
          38.099,
          41.799,
          34.799,
          30.599,
          26.299,
          32.799,
          30.899,
          37.5,
          32.499,
          32.199,
          29.099,
          30.399,
          22.499,
          23.999,
          19.799,
          19.499,
          15.099,
          13.099,
          11.599,
          10.899,
          9.7999,
          9.8999,
          9.9999,
          11.299,
          17.399,
          14.899,
          17.999,
          16.499,
          22.099,
          24.499,
          27.599,
          26.699,
          24.499,
          23.799,
          21.999,
          30.299,
          22.699,
          23.399,
          20.999,
          20.699,
          18.699,
          17.099,
          17.499,
          17.799,
          17.599,
          14.699,
          13.599,
          15.899,
          13.799,
          13.399,
          12.799,
          12.199,
          11.599,
          11.799,
          10.599,
          10.699,
          10.599,
          10.999,
          10.599,
          10.899,
          10.599,
          10.699,
          10.599,
          11.199,
          9.8999,
          10.599,
          11.199,
          11.199,
          10.999,
          10.999,
          11.499,
          10.999,
          10.699,
          10.699,
          10.799,
          10.099,
          10.199,
          10.099,
          9.1999,
          9.3999,
          8.9999,
          8.1999,
          7.8999,
          7.7999,
          7.3999,
          6.9999,
          6.7999,
          6.2999,
          6.0999,
          5.9999,
          5.7999,
          5.5999,
          5.6999,
          5.4999,
          5.0999,
          4.5999,
          4.2999,
          4.1999,
          4.9999,
          4.4999,
          5.1999,
          6.2999,
          7.8999,
          9.8999,
          11.399,
          13.899,
          14.499,
          15.299,
          15.399,
          15.699,
          16.899,
          14.899,
          15.799,
          15.799,
          13.499,
          14.099,
          7.5999,
          7.2999,
          7.5999,
          6.7999,
          6.8999,
          6.4999,
          6.0999,
          5.8999,
          5.7999,
          5.4999,
          5.2999,
          5.1999,
          5.1999,
          4.8999,
          4.8999,
          4.7999,
          4.5999,
          4.4999,
          4.5999,
          4.5999,
          4.5999,
          4.6999,
          4.6999,
          4.9999,
          4.9999,
          5.1999,
          5.2999,
          5.5999,
          5.8999,
          5.8999,
          6.2999,
          5.9999,
          6.8999,
          7.7999,
          7.5999,
          8.1999,
          9.1999,
          10.799,
          10.199,
          10.499,
          12.399,
          11.699,
          12.199,
          13.299,
          13.799,
          14.799,
          14.599,
          13.499,
          14.699,
          14.899,
          14.399,
          15.299,
          17.299,
          16.399,
          17.499,
          15.699,
          17.499,
          14.699,
          16.499,
          16.499,
          21.899,
          20.499,
          19.399,
          19.299,
          17.099,
          19.699,
          17.499,
          17.999,
          20.599,
          17.399,
          19.699,
          16.199,
          19.699,
          23.099,
          18.099,
          21.699,
          19.499,
          20.599,
          21.699,
          22.399,
          23.399,
          21.999,
          19.799,
          21.199,
          20.799,
          20.299,
          18.099,
          18.899,
          21.999,
          25.199,
          21.599,
          25.399,
          25.399,
          23.999,
          21.999,
          26.999,
          20.899,
          20.399,
          18.099,
          18.899,
          22.099,
          20.999,
          21.599,
          25.599,
          25.599,
          24.099,
          22.199,
          27.299,
          25.899,
          21.999,
          30.799,
          21.199,
          26.999,
          25.399,
          25.399,
          28.299,
          21.399,
          26.799,
          23.099,
          25.099,
          25.999,
          23.099,
          24.199,
          25.299,
          27.799,
          25.119,
          26.159,
          27.799,
          36.799,
          22.399,
          24.699,
          25.199,
          23.099,
          24.299,
          24.299,
          20.999,
          30.099,
          22.699,
          20.399,
          19.099,
          18.599,
          26.299,
          20.999,
          19.999,
          18.599,
          18.799,
          18.299,
          17.499,
          19.599,
          18.599,
          19.099,
          17.499,
          15.799,
          17.899,
          17.699,
          13.999,
          15.899,
          17.599,
          16.099,
          16.699,
          13.299,
          14.199,
          13.899,
          13.599,
          15.299,
          14.199,
          13.999,
          13.699,
          13.599,
          13.899,
          12.399,
          13.099,
          13.199,
          12.199,
          11.799,
          11.299,
          10.799,
          10.499,
          10.199,
          9.5999,
          10.699,
          10.099,
          9.4999,
          6.4999,
          9.3999,
          8.3999,
          7.7999,
          7.9999,
          7.9999,
          7.6999,
          7.3999,
          6.8999,
          6.9999,
          6.5999,
          6.5999,
          6.2999,
          6.1999,
          5.9999,
          5.6999,
          5.5999,
          5.3999,
          4.9999,
          4.9999,
          4.8999,
          4.6999,
          4.5999,
          4.2999,
          4.1999,
          3.5999,
          3.7999,
          3.7999,
          3.5999,
          3.4999,
          3.3999,
          3.2999,
          3.1999,
          3.0999,
          2.9999,
          2.8999,
          2.8999,
          2.7999,
          2.6999,
          2.6999,
          2.6999,
          2.5999,
          2.5999,
          2.4999,
          2.4999,
          2.4999,
          2.4999,
          2.4999,
          2.4999,
          2.4999,
          2.4999,
          2.4999,
          2.4999,
          2.4999,
          2.5999,
          2.5999,
          2.6999,
          2.7999,
          2.7999,
          27.999,
          2.8999,
          2.9999,
          2.9999,
          3.0999,
          3.1999,
          3.2999,
          3.3999,
          3.3999,
          3.4999,
          2.3999,
          2.3999,
          2.2999,
          2.2999,
          2.2999,
          2.1999,
          2.1999,
          2.1999,
          2.3999,
          2.5999,
          2.7999,
          2.9999,
          2.9999,
          3.1999,
          3.1999,
          3.1999,
          3.1999,
          3.1999,
          3.1999,
          3.3999,
          3.4999,
          3.5999,
          3.6999,
          3.7999,
          3.9999,
          3.9999,
          4.1999,
          4.0999,
          3.6999,
          3.6999,
          3.2999,
          3.1999,
          3.2999,
          3.2999,
          3.5999,
          3.9999,
          4.1999,
          4.8999,
          4.7999,
          4.6999,
          4.9999,
          4.9999,
          4.9999,
          5.4999,
          5.7999,
          5.0999,
          4.9999,
          5.0999,
          5.1999,
          5.3999,
          5.0999,
          5.1999,
          5.1999,
          5.3999,
          5.3999,
          5.4999,
          5.3999,
          5.3999,
          5.4999,
          5.3999,
          5.0999,
          4.7999,
          4.3999,
          3.9999,
          6.0999,
          5.8999,
          5.7999,
          5.6999,
          5.3999,
          5.1999,
          4.9999,
          4.8999,
          4.6999,
          4.5999,
          4.6999,
          4.5999,
          4.5999,
          4.6999,
          4.7999,
          4.9999,
          5.3999,
          5.8999,
          6.1999,
          6.7999,
          7.2999,
          7.7999,
          7.8999,
          7.9999,
          8.3999,
          8.4999,
          8.5999,
          8.1999,
          8.1999,
          8.1999,
          8.0999,
          7.1999,
          7.1999,
          6.9999,
          6.7999,
          6.5999,
          6.2999,
          5.9999,
          5.6999,
          5.4999,
          5.1999,
          4.8999,
          4.6999,
          4.4999,
          4.2999,
          3.9999,
          3.7999,
          3.5999,
          3.4999,
          3.2999,
          3.0999,
          2.8999,
          2.7999,
          2.6999,
          2.6999,
          2.6999,
          2.6999,
          2.6999,
          2.7999,
          2.7999,
          2.7999,
          2.9999,
          3.0999,
          3.3999,
          3.5999,
          3.9999,
          4.2999,
          4.6999,
          5.1999,
          5.7999,
          5.9999,
          6.1999,
          6.0999,
          6.1999,
          6.3999,
          6.0999,
          6.0999,
          6.0999,
          6.0999,
          5.8999,
          5.8999,
          5.8999,
          5.7999,
          5.8999,
          5.8999,
          5.8999,
          5.6999,
          5.6999,
          5.9999,
          6.3999,
          6.8999,
          6.7999,
          6.8999,
          7.1999,
          7.0999,
          7.3999,
          7.2999,
          6.9999,
          7.0999,
          7.7999,
          6.6999,
          6.3999,
          6.2999,
          6.2999,
          6.2999,
          5.9999,
          6.1999,
          6.0999,
          5.9999,
          6.0999,
          4.8999,
          6.3999,
          5.9999,
          6.0999,
          6.2999,
          5.9999,
          6.0999,
          5.9999,
          5.8999,
          5.8999,
          5.4999,
          5.1999,
          5.1999,
          4.9999,
          4.7999,
          4.6999,
          4.5999,
          4.5999,
          4.5999,
          4.4999,
          4.3999,
          4.2999,
          4.1999,
          4.1999,
          4.0999,
          4.0999,
          3.9999,
          3.9999,
          3.9999,
          3.8999,
          3.8999,
          3.8999,
          3.8999,
          3.7999,
          3.7999,
          3.8999,
          3.8999,
          3.9999,
          3.9999,
          3.9999,
          4.0999,
          4.1999,
          4.1999,
          4.2999,
          4.3999,
          4.3999,
          4.4999,
          4.7999,
          4.6999,
          4.7999,
          4.9999,
          4.9999,
          5.0999,
          4.9999,
          3.0999,
          2.9999,
          5.0999,
          4.9999,
          5.1999,
          5.0999,
          5.2999,
          5.3999,
          5.5999,
          5.7999,
          6.1999,
          6.9999,
          7.5999,
          7.8999,
          8.4999,
          8.7999,
          8.9999,
          9.6999,
          9.0999,
          9.2999,
          8.5999,
          9.1999,
          9.3999,
          9.8999,
          8.9999,
          9.6999,
          9.5999,
          8.5999,
          9.3999,
          9.0999,
          8.3999,
          8.2999,
          7.7999,
          7.4999,
          7.0999,
          6.8999,
          6.8999,
          6.1999,
          5.7999,
          5.3999,
          5.1999,
          4.8999,
          5.6999,
          4.5999,
          4.4999,
          4.3999,
          4.3999,
          4.4999,
          4.6999,
          4.9999,
          5.4999,
          5.9999,
          6.7999,
          7.7999,
          8.5999,
          9.2999,
          10.599,
          10.399,
          11.199,
          11.199,
          9.3999,
          9.3999,
          9.2999,
          8.4999,
          8.1999,
          7.4999,
          6.7999,
          6.2999,
          5.7999,
          5.4999,
          4.9999,
          4.7999,
          4.4999,
          4.3999,
          4.3999,
          4.4999,
          4.5999,
          4.8999,
          5.4999,
          5.7999,
          6.6999,
          7.6999,
          8.3999,
          10.199,
          9.8999,
          8.8999,
          8.4999,
          7.7999,
          6.7999,
          6.2999,
          5.7999,
          5.4999,
          4.9999,
          4.6999,
          4.4999,
          4.1999,
          4.1999,
          4.1999,
          4.1999,
          4.2999,
          4.3999,
          4.5999,
          5.0999,
          5.3999,
          5.6999,
          6.0999,
          6.8999,
          7.4999,
          7.8999,
          7.9999,
          8.1999,
          8.0999,
          9.2999,
          9.1999,
          9.7999,
          9.8999,
          10.799,
          10.599,
          11.099,
          11.199,
          11.699,
          11.099,
          11.899,
          12.199,
          11.499,
          10.899,
          11.299,
          11.099,
          11.199,
          10.499,
          10.499,
          10.499,
          9.9999,
          8.9999,
          8.1999,
          7.9999,
          7.6999,
          6.8999,
          6.4999,
          5.7999,
          5.3999,
          4.9999,
          4.6999,
          4.2999,
          4.2999,
          3.9999,
          3.9999,
          3.8999,
          3.9999,
          3.9999,
          4.1999,
          4.3999,
          4.5999,
          4.9999,
          5.2999,
          5.7999,
          5.9999,
          6.0999,
          6.3999,
          6.8999,
          6.7999,
          6.8999,
          6.7999,
          6.8999,
          6.9999,
          6.8999,
          6.5999,
          6.3999,
          6.2999,
          5.9999,
          5.7999,
          5.4999,
          5.2999,
          4.8999,
          4.5999,
          4.5999,
          4.0999,
          3.7999,
          3.6999,
          3.3999,
          3.1999,
          2.9999,
          2.8999,
          2.7999,
          2.4999,
          2.5999,
          2.4999,
          2.4999,
          2.4999,
          2.4999,
          2.5999,
          2.6999,
          2.7999,
          2.9999,
          3.2999,
          3.5999,
          3.8999,
          4.1999,
          4.5999,
          4.7999,
          4.9999,
          5.1999,
          7.3999,
          5.5999,
          5.7999,
          5.7999,
          5.7999,
          5.6999,
          5.4999,
          5.4999,
          5.9999,
          5.7999,
          5.8999,
          5.7999,
          6.2999,
          6.0999,
          6.3999,
          6.2999,
          6.2999,
          6.4999,
          6.3999,
          6.2999,
          6.0999,
          5.7999,
          5.7999,
          5.2999,
          5.0999,
          4.9999,
          4.8999,
          4.8999,
          4.8999,
          4.7999,
          4.5999,
          4.1999,
          3.8999,
          3.6999,
          3.4999,
          3.2999,
          3.1999,
          3.0999,
          3.1999,
          3.2999,
          3.5999,
          3.8999,
          4.3999,
          5.2999,
          5.7999,
          6.6999,
          7.4999,
          7.4999,
          8.1999,
          8.6999,
          9.1999,
          9.3999,
          9.1999,
          9.6999,
          9.4999,
          9.8999,
          9.3999,
          10.999,
          10.299,
          10.299,
          10.399,
          9.9999,
          10.099,
          10.699,
          11.199,
          11.199,
          11.199,
          10.399,
          10.299,
          9.9999,
          9.7999,
          9.8999,
          9.2999,
          8.6999,
          8.1999,
          7.9999,
          7.0999,
          6.3999,
          5.8999,
          5.2999,
          4.9999,
          4.5999,
          4.3999,
          4.0999,
          3.8999,
          3.9999,
          4.0999,
          4.1999,
          4.4999,
          4.5999,
          4.5999,
          4.4999,
          4.1999,
          3.8999,
          3.7999,
          3.4999,
          3.3999,
          3.2999,
          3.2999,
          3.2999,
          3.2999,
          3.2999,
          3.4999,
          3.5999,
          3.7999,
          3.9999,
          4.2999,
          4.5999,
          4.6999,
          4.7999,
          4.8999,
          4.7999,
          4.4999,
          4.2999,
          4.1999,
          3.9999,
          4.0999,
          4.0999,
          4.2999,
          4.3999,
          4.5999,
          4.5999,
          4.6999,
          4.7999,
          4.7999,
          4.6999,
          4.6999,
          4.5999,
          4.4999,
          4.4999,
          4.2999,
          4.1999,
          4.1999,
          4.0999,
          4.0999,
          3.8999,
          3.7999,
          3.7999,
          3.6999,
          3.6999,
          3.6999,
          3.6999,
          3.6999,
          3.6999,
          3.7999,
          3.9999,
          4.0999,
          4.2999,
          4.6999,
          4.9999,
          5.3999,
          5.6999,
          5.5999,
          5.5999,
          5.3999,
          4.9999,
          4.6999,
          4.3999,
          4.1999,
          3.9999,
          3.8999,
          3.9999,
          3.9999,
          4.1999,
          4.3999,
          4.6999,
          5.0999,
          5.2999,
          5.6999,
          5.8999,
          6.4999,
          6.2999,
          6.2999,
          6.1999,
          6.4999,
          6.3999,
          6.4999,
          6.2999,
          6.0999,
          5.4999,
          5.1999,
          4.7999,
          4.4999,
          4.1999,
          3.9999,
          3.9999,
          4.0999,
          4.1999,
          4.4999,
          4.9999,
          5.1999,
          5.3999,
          5.3999,
          5.2999,
          5.3999,
          5.6999,
          5.5999,
          5.9999,
          6.3999,
          6.7999,
          7.0999,
          7.4999,
          8.0999,
          8.5999,
          9.1999,
          9.4999,
          9.9999,
          9.2999,
          9.4999,
          9.5999,
          9.1999,
          9.0999,
          8.2999,
          7.6999,
          7.1999,
          6.2999,
          6.8999,
          7.1999,
          8.0999,
          9.1999,
          10.799,
          10.799,
          10.899,
          10.799,
          8.9999,
          8.3999,
          6.9999,
          6.4999,
          6.0999,
          5.5999,
          5.0999,
          4.6999,
          4.6999,
          4.7999,
          4.6999,
          4.6999,
          5.0999,
          5.7999,
          6.8999,
          8.4999,
          9.8999,
          9.7999,
          9.0999,
          8.2999,
          7.2999,
          6.1999,
          5.0999,
          4.4999,
          3.9999,
          3.6999,
          3.3999,
          3.1999,
          2.9999,
          2.9999,
          3.0999,
          3.2999,
          3.7999,
          4.5999,
          5.7999,
          7.2999,
          8.6999,
          8.9999,
          8.1999,
          9.8999,
          8.3999,
          7.7999,
          6.7999,
          5.5999,
          4.9999,
          4.4999,
          3.9999,
          3.5999,
          3.3999,
          3.2999,
          3.3999,
          3.5999,
          3.7999,
          4.3999,
          4.3999,
          4.2999,
          3.7999,
          3.5999,
          3.2999,
          3.0999,
          2.9999,
          2.8999,
          2.8999,
          2.5999,
          2.8999,
          2.7999,
          2.7999,
          2.6999,
          2.5999,
          2.4999,
          2.4999,
          2.4999,
          2.5999,
          2.6999,
          2.8999,
          3.1999,
          3.4999,
          3.7999,
          4.0999,
          4.3999,
          4.6999,
          4.9999,
          5.0999,
          5.1999,
          5.4999,
          5.5999,
          5.7999,
          5.8999,
          6.1999,
          6.2999,
          6.2999,
          6.2999,
          6.3999,
          6.4999,
          6.7999,
          6.4999,
          6.5999,
          6.2999,
          6.2999,
          6.1999,
          6.0999,
          5.7999,
          5.3999,
          5.2999,
          5.1999,
          5.0999,
          4.7999,
          4.7999,
          4.8999,
          5.0999,
          5.1999,
          5.2999,
          5.0999,
          4.8999,
          4.4999,
          3.8999,
          3.5999,
          3.2999,
          3.0999,
          2.9999,
          2.9999,
          3.0999,
          3.4999,
          3.9999,
          4.2999,
          4.5999,
          4.5999,
          4.9999,
          4.9999,
          4.8999,
          4.6999,
          4.4999,
          4.4999,
          4.4999,
          4.5999,
          4.5999,
          4.4999,
          4.2999,
          4.0999,
          3.9999,
          3.8999,
          3.7999,
          3.6999,
          3.6999,
          3.6999,
          3.7999,
          3.8999,
          4.0999,
          4.2999,
          4.5999,
          4.9999,
          5.1999,
          5.5999,
          5.5999,
          5.5999,
          5.4999,
          5.1999,
          4.8999,
          4.1999,
          4.2999,
          4.2999,
          4.2999,
          4.1999,
          4.0999,
          3.8999,
          3.8999,
          3.8999,
          3.7999,
          3.6999,
          3.5999,
          3.5999,
          3.6999,
          3.7999,
          4.0999,
          4.3999,
          4.7999,
          5.1999,
          5.5999,
          5.6999,
          5.6999,
          5.7999,
          5.7999,
          5.9999,
          5.6999,
          5.1999,
          4.5999,
          4.0999,
          3.6999,
          3.4999,
          3.4999,
          3.4999,
          3.7999,
          4.2999,
          4.6999,
          4.6999,
          4.3999,
          3.9999,
          3.6999,
          3.5999,
          3.4999,
          3.4999,
          3.6999,
          3.7999,
          3.8999,
          3.8999,
          3.9999,
          4.1999,
          4.4999,
          4.4999,
          4.4999,
          4.5999,
          4.7999,
          4.6999,
          4.1999,
          3.4999,
          3.5999,
          2.8999,
          3.2999,
          3.1999,
          3.0999,
          2.8999,
          2.7999,
          2.6999,
          2.6999,
          2.8999,
          2.9999,
          3.0999,
          3.0999,
          2.9999,
          3.0999,
          3.1999,
          3.3999,
          3.7999,
          4.3999,
          4.4999,
          4.5999,
          4.3999,
          4.2999,
          4.2999,
          4.5999,
          4.8999,
          4.9999,
          4.5999,
          4.0999,
          3.8999,
          3.5999,
          3.1999,
          2.9999,
          2.9999,
          2.9999,
          2.9999,
          2.8999,
          2.7999,
          2.6999,
          2.5999,
          2.5999,
          2.5999,
          2.6999,
          2.8999,
          3.1999,
          3.6999,
          3.9999,
          3.7999,
          3.5999,
          3.2999,
          3.1999,
          3.1999,
          3.2999,
          3.4999,
          3.6999,
          3.5999,
          3.7999,
          4.1999,
          4.4999,
          4.5999,
          4.3999,
          3.9999,
          3.7999,
          3.5999,
          3.6999,
          3.7999,
          3.9999,
          4.0999,
          4.1999,
          4.3999,
          4.5999,
          4.9999,
          5.0999,
          5.3999,
          5.3999,
          5.4999,
          5.4999,
          5.3999,
          5.1999,
          4.8999,
          4.6999,
          3.9999,
          4.4999,
          4.5999,
          4.8999,
          5.0999,
          5.6999,
          5.9999,
          7.4999,
          7.7999,
          7.8999,
          7.2999,
          7.1999,
          6.3999,
          6.0999,
          6.3999,
          7.1999,
          7.7999,
          9.3999,
          10.199,
          10.299,
          9.5999,
          10.199,
          8.8999,
          7.9999,
          7.0999,
          6.1999,
          5.3999,
          4.7999,
          4.1999,
          3.9999,
          3.5999,
          3.2999,
          2.7999,
          2.9999,
          2.8999,
          3.1999,
          3.2999,
          3.6999,
          3.9999,
          3.9999,
          3.6999,
          3.3999,
          3.1999,
          3.4999,
          4.5999,
          4.7999,
          5.2999,
          4.8999,
          3.3999,
          3.7999,
          3.3999,
          3.1999,
          3.1999,
          3.2999,
          3.4999,
          3.6999,
          4.9999,
          4.9999,
          5.8999,
          5.8999,
          4.6999,
          4.7999,
          4.2999,
          4.0999,
          4.0999,
          4.1999,
          4.4999,
          4.8999,
          5.2999,
          5.1999,
          4.7999,
          4.3999,
          4.3999,
          4.4999,
          4.5999,
          4.6999,
          4.6999,
          4.4999,
          4.5999,
          4.0999,
          4.4999,
          4.2999,
          3.8999,
          3.5999,
          5.1999,
          3.1999,
          3.0999,
          3.1999,
          3.2999,
          3.6999,
          3.9999,
          4.2999,
          3.1999,
          5.1999,
          5.3999,
          6.6999,
          4.9999,
          4.5999,
          4.4999,
          4.3999,
          4.0999,
          4.0999,
          4.0999,
          4.6999,
          4.9999,
          4.6999,
          4.2999,
          4.0999,
          3.6999,
          3.5999,
          3.5999,
          3.7999,
          3.6999,
          3.8999,
          3.9999,
          4.5999,
          4.8999,
          4.4999,
          4.5999,
          4.3999,
          4.2999,
          3.7999,
          4.1999,
          4.2999,
          4.4999,
          4.5999,
          4.5999,
          4.1999,
          3.8999,
          3.8999,
          5.3999,
          5.0999,
          5.6999,
          5.3999,
          5.2999,
          5.3999,
          4.9999,
          5.2999,
          5.1999,
          4.6999,
          4.0999,
          3.6999,
          3.5999,
          3.7999,
          3.9999,
          3.9999,
          3.7999,
          3.5999,
          3.6999,
          4.0999,
          4.3999,
          4.3999,
          4.3999,
          4.2999,
          5.0999,
          4.9999,
          4.9999,
          4.9999,
          4.9999,
          5.0999,
          5.5999,
          5.6999,
          5.4999,
          5.4999,
          5.4999,
          4.9999,
          4.6999,
          4.9999,
          5.0999,
          3.9999,
          3.9999,
          3.6999,
          3.7999,
          3.9999,
          3.8999,
          3.5999,
          3.4999,
          3.5999,
          3.9999,
          4.8999,
          4.3999,
          3.4999,
          3.4999,
          3.2999,
          3.5999,
          4.1999,
          4.2999,
          3.9999,
          3.4999,
          3.2999,
          2.9999,
          2.9999,
          3.0999,
          3.4999,
          3.8999,
          4.0999,
          4.2999,
          4.2999,
          3.4999,
          3.6999,
          3.2999,
          3.0999,
          3.0999,
          3.0999,
          3.2999,
          3.0999,
          2.9999,
          2.4999,
          3.0999,
          3.4999,
          3.9999,
          4.4999,
          4.8999,
          5.1999,
          4.6999,
          4.0999,
          3.9999,
          3.6999,
          3.6999,
          3.8999,
          5.8999,
          3.7999,
          3.7999,
          3.4999,
          3.4999,
          3.6999,
          3.7999,
          3.6999,
          3.4999,
          3.4999,
          3.8999,
          4.4999,
          4.5999,
          4.3999,
          3.7999,
          3.6999,
          3.7999,
          3.6999,
          3.5999,
          3.6999,
          3.7999,
          3.8999,
          3.7999,
          3.8999,
          3.9999,
          3.7999,
          3.6999,
          3.5999,
          3.5999,
          3.6999,
          3.5999,
          3.4999,
          3.3999,
          3.3999,
          3.4999,
          3.6999
        ]
      ]
    }
  }
}