{
  "entry": "10279",
  "last_updated": "2006-07-20",
  "number_of_revisions": "3",
  "histories": [
    {
      "x4_code": "(19721110C)",
      "free_txt": []
    },
    {
      "x4_code": "(19750701A)",
      "free_txt": [
        " BIB changes."
      ]
    },
    {
      "x4_code": "(19830110A)",
      "free_txt": [
        " Converted to REACTION formalism"
      ]
    },
    {
      "x4_code": "(20011227A)",
      "free_txt": [
        " Updated to new date formats, lower case."
      ]
    }
  ],
  "bib_record": {
    "title": "The Total Neutron Cross Section of Uranium-238 from 0.8 to 30 MeV.",
    "authors": [
      {
        "name": "S.H.Hayes"
      },
      {
        "name": "P.Stoler"
      },
      {
        "name": "J.M.Clement"
      },
      {
        "name": "C.A.Goulding"
      }
    ],
    "institutes": [
      {
        "x4_code": "(1USARPI)",
        "free_txt": []
      }
    ],
    "references": {
      "0": [
        {
          "x4_code": "(J,NSE,50,243,197303)",
          "free_txt": [],
          "publication_year": "1973"
        }
      ]
    },
    "facilities": {
      "0": [
        {
          "x4_code": "(LINAC,1USARPI)",
          "free_txt": [
            " RPI electron linac"
          ],
          "facility_type": "(LINAC)",
          "institute": "(1USARPI)"
        }
      ]
    }
  },
  "data_tables": {
    "001": {
      "common": null
    },
    "002": {
      "reaction": {
        "0": {
          "x4_code": "(92-U-238(N,TOT),,SIG)",
          "0": {
            "code": [
              "92-U-238",
              [
                "N,TOT"
              ],
              ",,SIG"
            ],
            "type": null,
            "target": "92-U-238",
            "process": "N,TOT",
            "sf49": ",,SIG",
            "sf4": null,
            "sf5": null,
            "sf6": "SIG",
            "sf7": null,
            "sf8": null,
            "sf9": null
          },
          "type": null,
          "free_text": ""
        }
      },
      "common": {
        "heads": [
          "EN-RSL"
        ],
        "units": [
          "NSEC/M"
        ],
        "data": [
          [
            0.1
          ]
        ]
      },
      "data": {
        "heads": [
          "EN",
          "DATA",
          "ERR-S"
        ],
        "units": [
          "MEV",
          "B",
          "B"
        ],
        "data": [
          [
            0.70043,
            0.70173,
            0.70336,
            0.705,
            0.70664,
            0.70829,
            0.70995,
            0.71161,
            0.71328,
            0.71495,
            0.71663,
            0.71831,
            0.71966,
            0.72136,
            0.72306,
            0.72477,
            0.72648,
            0.7282,
            0.72992,
            0.73166,
            0.73339,
            0.73479,
            0.73654,
            0.73829,
            0.74005,
            0.74182,
            0.7436,
            0.74538,
            0.74716,
            0.74896,
            0.7504,
            0.7522,
            0.75401,
            0.75583,
            0.75766,
            0.75949,
            0.76133,
            0.76317,
            0.76502,
            0.76688,
            0.76875,
            0.77024,
            0.77212,
            0.77401,
            0.7759,
            0.7778,
            0.77971,
            0.78162,
            0.78354,
            0.78547,
            0.78702,
            0.78896,
            0.79091,
            0.79286,
            0.79483,
            0.7968,
            0.79877,
            0.80076,
            0.80275,
            0.80435,
            0.80635,
            0.80837,
            0.81039,
            0.81242,
            0.81445,
            0.81649,
            0.81855,
            0.82061,
            0.82226,
            0.82433,
            0.82641,
            0.8285,
            0.8306,
            0.8327,
            0.83481,
            0.83693,
            0.83906,
            0.84077,
            0.84291,
            0.84507,
            0.84723,
            0.84939,
            0.85157,
            0.85375,
            0.85594,
            0.85813,
            0.8599,
            0.86211,
            0.86433,
            0.86656,
            0.8688,
            0.87105,
            0.8733,
            0.87557,
            0.87784,
            0.88012,
            0.88241,
            0.88425,
            0.88656,
            0.88887,
            0.8912,
            0.89353,
            0.89588,
            0.89823,
            0.90059,
            0.90297,
            0.90487,
            0.90726,
            0.90966,
            0.91206,
            0.91448,
            0.91691,
            0.91934,
            0.92179,
            0.92425,
            0.92671,
            0.92919,
            0.93117,
            0.93367,
            0.93617,
            0.93869,
            0.94121,
            0.94374,
            0.94628,
            0.94884,
            0.9514,
            0.95346,
            0.95604,
            0.95863,
            0.96123,
            0.96384,
            0.96647,
            0.9691,
            0.97175,
            0.9744,
            0.97707,
            0.97975,
            0.9819,
            0.98459,
            0.9873,
            0.99002,
            0.99275,
            0.9955,
            0.99825,
            1.001,
            1.0037,
            1.0065,
            1.0093,
            1.0116,
            1.0144,
            1.0172,
            1.0201,
            1.0229,
            1.0258,
            1.0287,
            1.0316,
            1.0345,
            1.0374,
            1.0403,
            1.0427,
            1.0456,
            1.0486,
            1.0516,
            1.0546,
            1.0576,
            1.0606,
            1.0636,
            1.0667,
            1.0697,
            1.0728,
            1.0753,
            1.0783,
            1.0814,
            1.0846,
            1.0877,
            1.0908,
            1.094,
            1.0972,
            1.1004,
            1.1029,
            1.1061,
            1.1094,
            1.1126,
            1.1159,
            1.1191,
            1.1224,
            1.1257,
            1.129,
            1.1324,
            1.1357,
            1.1384,
            1.1417,
            1.1451,
            1.1485,
            1.1519,
            1.1554,
            1.1588,
            1.1623,
            1.1658,
            1.1692,
            1.1727,
            1.1756,
            1.1791,
            1.1827,
            1.1862,
            1.1898,
            1.1934,
            1.197,
            1.2007,
            1.2043,
            1.2072,
            1.2109,
            1.2146,
            1.2183,
            1.222,
            1.2258,
            1.2296,
            1.2333,
            1.2371,
            1.241,
            1.2448,
            1.2479,
            1.2517,
            1.2556,
            1.2595,
            1.2635,
            1.2674,
            1.2713,
            1.2753,
            1.2793,
            1.2833,
            1.2874,
            1.2906,
            1.2947,
            1.2988,
            1.3029,
            1.307,
            1.3111,
            1.3153,
            1.3195,
            1.3237,
            1.3279,
            1.3322,
            1.3356,
            1.3399,
            1.3442,
            1.3485,
            1.3528,
            1.3572,
            1.3616,
            1.366,
            1.3705,
            1.374,
            1.3785,
            1.383,
            1.3875,
            1.392,
            1.3966,
            1.4012,
            1.4058,
            1.4104,
            1.4141,
            1.4188,
            1.4235,
            1.4282,
            1.433,
            1.4377,
            1.4425,
            1.4473,
            1.4522,
            1.457,
            1.4619,
            1.4658,
            1.4708,
            1.4757,
            1.4807,
            1.4857,
            1.4907,
            1.4958,
            1.5009,
            1.506,
            1.5101,
            1.5153,
            1.5204,
            1.5256,
            1.5309,
            1.5361,
            1.5414,
            1.5467,
            1.552,
            1.5574,
            1.5627,
            1.5671,
            1.5725,
            1.578,
            1.5834,
            1.589,
            1.5945,
            1.6001,
            1.6057,
            1.6113,
            1.617,
            1.6227,
            1.6284,
            1.6342,
            1.6388,
            1.6446,
            1.6505,
            1.6563,
            1.6622,
            1.6682,
            1.6741,
            1.6801,
            1.6862,
            1.6922,
            1.6983,
            1.7032,
            1.7094,
            1.7156,
            1.7218,
            1.7281,
            1.7344,
            1.7407,
            1.7471,
            1.7535,
            1.7599,
            1.7664,
            1.7716,
            1.7781,
            1.7847,
            1.7913,
            1.798,
            1.8047,
            1.8114,
            1.8181,
            1.8249,
            1.8318,
            1.8387,
            1.8442,
            1.8511,
            1.8581,
            1.8651,
            1.8722,
            1.8793,
            1.8865,
            1.8937,
            1.9009,
            1.9082,
            1.9155,
            1.9213,
            1.9287,
            1.9362,
            1.9436,
            1.9512,
            1.9587,
            1.9663,
            1.974,
            1.9817,
            1.9879,
            1.9956,
            2.0035,
            2.0113,
            2.0192,
            2.0272,
            2.0352,
            2.0433,
            2.0514,
            2.0595,
            2.0677,
            2.0743,
            2.0826,
            2.0909,
            2.0993,
            2.1078,
            2.1163,
            2.1248,
            2.1334,
            2.142,
            2.1508,
            2.1595,
            2.1665,
            2.1754,
            2.1843,
            2.1933,
            2.2023,
            2.2113,
            2.2205,
            2.2297,
            2.2389,
            2.2482,
            2.2575,
            2.2651,
            2.2745,
            2.2841,
            2.2936,
            2.3033,
            2.313,
            2.3227,
            2.3326,
            2.3425,
            2.3524,
            2.3624,
            2.3705,
            2.3806,
            2.3908,
            2.4011,
            2.4114,
            2.4218,
            2.4323,
            2.4428,
            2.4534,
            2.4619,
            2.4727,
            2.4835,
            2.4943,
            2.5053,
            2.5163,
            2.5273,
            2.5385,
            2.5497,
            2.561,
            2.5724,
            2.5816,
            2.5931,
            2.6047,
            2.6164,
            2.6281,
            2.64,
            2.6519,
            2.6639,
            2.6759,
            2.6881,
            2.7003,
            2.7102,
            2.7226,
            2.7351,
            2.7476,
            2.7603,
            2.773,
            2.7858,
            2.7988,
            2.8118,
            2.8222,
            2.8354,
            2.8487,
            2.862,
            2.8755,
            2.889,
            2.9027,
            2.9164,
            2.9302,
            2.9442,
            2.9582,
            2.9695,
            2.9837,
            2.998,
            3.0125,
            3.027,
            3.0416,
            3.0564,
            3.0712,
            3.0862,
            3.1012,
            3.1164,
            3.1286,
            3.144,
            3.1595,
            3.1751,
            3.1908,
            3.2067,
            3.2226,
            3.2387,
            3.2549,
            3.268,
            3.2844,
            3.3009,
            3.3176,
            3.3344,
            3.3513,
            3.3684,
            3.3856,
            3.4029,
            3.4203,
            3.4379,
            3.4521,
            3.4699,
            3.4879,
            3.506,
            3.5243,
            3.5427,
            3.5613,
            3.58,
            3.5988,
            3.614,
            3.6332,
            3.6524,
            3.6719,
            3.6914,
            3.7112,
            3.7311,
            3.7512,
            3.7714,
            3.7877,
            3.8082,
            3.8289,
            3.8498,
            3.8708,
            3.892,
            3.9134,
            3.935,
            3.9567,
            3.9742,
            3.9963,
            4.0185,
            4.041,
            4.0636,
            4.0864,
            4.1094,
            4.1326,
            4.156,
            4.1796,
            4.2034,
            4.2226,
            4.2468,
            4.2712,
            4.2958,
            4.3206,
            4.3456,
            4.3708,
            4.3963,
            4.422,
            4.4427,
            4.4688,
            4.4951,
            4.5217,
            4.5485,
            4.5755,
            4.6028,
            4.6303,
            4.6581,
            4.6805,
            4.7087,
            4.7372,
            4.766,
            4.795,
            4.8242,
            4.8538,
            4.8836,
            4.9137,
            4.938,
            4.9686,
            4.9994,
            5.0306,
            5.0621,
            5.0939,
            5.1259,
            5.1583,
            5.191,
            5.2173,
            5.2506,
            5.2841,
            5.318,
            5.3522,
            5.3868,
            5.4217,
            5.4569,
            5.4924,
            5.5212,
            5.5574,
            5.594,
            5.631,
            5.6683,
            5.706,
            5.7441,
            5.7826,
            5.8214,
            5.8528,
            5.8923,
            5.9323,
            5.9727,
            6.0135,
            6.0547,
            6.0963,
            6.13,
            6.1724,
            6.2153,
            6.2586,
            6.3024,
            6.3466,
            6.3913,
            6.4365,
            6.4822,
            6.5191,
            6.5656,
            6.6127,
            6.6602,
            6.7083,
            6.7569,
            6.806,
            6.8557,
            6.9059,
            6.9465,
            6.9978,
            7.0496,
            7.102,
            7.1549,
            7.2085,
            7.2627,
            7.3064,
            7.3617,
            7.4176,
            7.4742,
            7.5314,
            7.5893,
            7.6479,
            7.7071,
            7.767,
            7.8155,
            7.8767,
            7.9386,
            8.0013,
            8.0647,
            8.1289,
            8.1938,
            8.2463,
            8.3127,
            8.3798,
            8.4479,
            8.5167,
            8.5864,
            8.6569,
            8.7139,
            8.7861,
            8.8591,
            8.9331,
            9.0079,
            9.0838,
            9.1606,
            9.2384,
            9.3172,
            9.3809,
            9.4616,
            9.5432,
            9.6261,
            9.7098,
            9.7948,
            9.8809,
            9.9505,
            10.038,
            10.128,
            10.218,
            10.31,
            10.403,
            10.498,
            10.574,
            10.671,
            10.769,
            10.868,
            10.969,
            11.071,
            11.175,
            11.259,
            11.365,
            11.473,
            11.583,
            11.694,
            11.806,
            11.921,
            12.013,
            12.131,
            12.25,
            12.37,
            12.493,
            12.618,
            12.744,
            12.846,
            12.976,
            13.108,
            13.242,
            13.378,
            13.516,
            13.656,
            13.77,
            13.914,
            14.061,
            14.21,
            14.361,
            14.484,
            14.64,
            14.798,
            14.959,
            15.123,
            15.29,
            15.459,
            15.596,
            15.771,
            15.949,
            16.129,
            16.313,
            16.462,
            16.652,
            16.844,
            17.041,
            17.24,
            17.444,
            17.65,
            17.819,
            18.032,
            18.25,
            18.472,
            18.697,
            18.881,
            19.114,
            19.352,
            19.594,
            19.841,
            20.042,
            20.298,
            20.558,
            20.824,
            21.094,
            21.315,
            21.596,
            21.882,
            22.174,
            22.472,
            22.715,
            23.024,
            23.339,
            23.662,
            23.99,
            24.259,
            24.601,
            24.95,
            25.308,
            25.672,
            25.97,
            26.35,
            26.738,
            27.135,
            27.54,
            27.872,
            28.295,
            28.727,
            29.171,
            29.624,
            29.994
          ],
          [
            7.4472,
            7.5218,
            7.5821,
            7.8284,
            7.7172,
            7.7509,
            7.3552,
            7.2252,
            7.5068,
            7.6381,
            7.8347,
            7.9245,
            7.476,
            7.769,
            7.8092,
            7.6852,
            7.8993,
            7.3759,
            7.5683,
            7.7033,
            7.6818,
            7.5279,
            7.514,
            7.6114,
            7.8345,
            7.4337,
            7.8429,
            7.2786,
            7.6492,
            7.5897,
            7.5333,
            7.6417,
            7.7922,
            7.5602,
            7.7549,
            7.284,
            7.6658,
            7.525,
            7.7998,
            7.5733,
            7.4744,
            7.8938,
            7.8377,
            7.7941,
            7.6659,
            7.6846,
            7.4173,
            7.3186,
            7.5889,
            7.6602,
            7.6378,
            7.573,
            7.6227,
            7.5369,
            7.4234,
            7.5142,
            7.5098,
            7.5458,
            7.4308,
            7.3422,
            7.532,
            7.4535,
            7.3961,
            7.3063,
            7.5371,
            7.4997,
            7.5283,
            7.6273,
            7.3544,
            7.3701,
            7.4191,
            7.8044,
            7.3349,
            7.5747,
            7.3037,
            7.3588,
            7.5702,
            7.3513,
            7.488,
            7.4248,
            7.3775,
            7.0548,
            7.3992,
            7.5648,
            7.461,
            7.2598,
            7.1697,
            7.4125,
            7.3612,
            7.0534,
            7.3212,
            7.3603,
            7.2341,
            7.3329,
            6.9899,
            7.2326,
            7.2748,
            7.4209,
            7.5747,
            7.3019,
            7.5448,
            7.399,
            7.2812,
            7.4769,
            7.2027,
            7.1868,
            7.1366,
            7.2913,
            7.1709,
            7.2596,
            7.2577,
            7.28,
            7.1856,
            7.2618,
            7.2422,
            7.1884,
            6.9316,
            7.219,
            7.2503,
            7.2157,
            7.3482,
            7.1923,
            7.2047,
            7.2849,
            7.3403,
            7.0934,
            7.2028,
            7.1608,
            7.2346,
            7.1768,
            7.1501,
            7.1474,
            7.1181,
            7.1659,
            7.1893,
            7.3014,
            7.1627,
            7.3402,
            7.143,
            7.1305,
            7.1139,
            7.196,
            7.272,
            7.0401,
            6.952,
            6.9818,
            7.1573,
            6.6542,
            7.1693,
            7.035,
            7.279,
            7.1404,
            6.9907,
            7.0189,
            7.1263,
            7.1512,
            7.045,
            7.0642,
            7.2207,
            6.9918,
            7.0261,
            7.1889,
            7.1968,
            6.9926,
            7.0282,
            7.1348,
            7.0528,
            6.9818,
            7.1735,
            7.0928,
            6.8348,
            7.0212,
            7.0871,
            7.2431,
            7.2037,
            7.0275,
            6.9999,
            7.1638,
            7.2866,
            6.9686,
            7.1539,
            7.1409,
            7.1132,
            7.0112,
            7.026,
            6.8556,
            7.057,
            6.9657,
            7.0096,
            7.1172,
            7.1066,
            6.9854,
            6.9662,
            7.1218,
            7.1242,
            6.9418,
            7.0353,
            7.1529,
            6.8851,
            6.8818,
            6.9595,
            6.8855,
            6.9978,
            7.1111,
            7.0562,
            6.9314,
            6.9803,
            6.9231,
            6.8924,
            6.7785,
            6.9039,
            7.0374,
            7.0637,
            7.0195,
            7.1243,
            7.1195,
            6.9384,
            6.9623,
            6.9193,
            6.8545,
            6.9431,
            7.0251,
            6.8434,
            7.248,
            7.0164,
            6.8234,
            7.019,
            6.7954,
            6.94,
            6.8874,
            7.0812,
            6.9134,
            6.8306,
            7.0753,
            7.1179,
            6.9431,
            7.0847,
            7.0625,
            7.0448,
            7.0063,
            7.0487,
            6.7996,
            6.9884,
            6.8499,
            7.1426,
            7.0117,
            6.8512,
            7.0451,
            6.9217,
            6.9165,
            7.0349,
            7.0566,
            6.9829,
            7.0376,
            6.9494,
            7.0081,
            7.0751,
            7.0336,
            7.0112,
            7.1678,
            7.1263,
            7.0919,
            6.9445,
            6.9632,
            6.9764,
            6.9472,
            7.0532,
            7.0385,
            7.0615,
            6.9839,
            7.0839,
            7.006,
            6.8054,
            7.1578,
            7.2131,
            6.9269,
            7.2162,
            7.0062,
            6.8819,
            7.0484,
            7.1766,
            7.0945,
            6.9906,
            7.0868,
            7.1769,
            7.0283,
            7.173,
            7.3113,
            7.056,
            7.1266,
            7.0137,
            6.9904,
            7.1144,
            7.0974,
            7.0449,
            7.1061,
            7.1094,
            7.1324,
            7.1063,
            7.0915,
            7.01,
            7.1132,
            7.123,
            7.143,
            7.0398,
            7.073,
            7.0713,
            7.0936,
            7.0525,
            7.1155,
            7.1617,
            7.0737,
            7.2203,
            7.1509,
            7.2462,
            7.1068,
            7.1239,
            7.1383,
            7.0141,
            7.334,
            7.1039,
            7.1873,
            7.119,
            7.1416,
            7.1397,
            7.1128,
            7.1563,
            7.2948,
            7.1348,
            7.1704,
            7.1715,
            7.2453,
            7.2978,
            7.2703,
            7.2386,
            7.2635,
            7.1827,
            7.1856,
            7.2836,
            7.1579,
            7.3174,
            7.3662,
            7.2681,
            7.3542,
            7.1952,
            7.2902,
            7.194,
            7.3631,
            7.3113,
            7.4393,
            7.3452,
            7.3502,
            7.3189,
            7.3529,
            7.3925,
            7.282,
            7.3288,
            7.4032,
            7.2601,
            7.4611,
            7.4943,
            7.3411,
            7.2653,
            7.3671,
            7.3396,
            7.4917,
            7.3843,
            7.3997,
            7.3873,
            7.4058,
            7.3718,
            7.5127,
            7.4039,
            7.4688,
            7.4597,
            7.4649,
            7.4339,
            7.4444,
            7.4714,
            7.5938,
            7.5213,
            7.3675,
            7.4597,
            7.5627,
            7.533,
            7.5604,
            7.4876,
            7.4303,
            7.4978,
            7.4698,
            7.4518,
            7.5155,
            7.5551,
            7.5345,
            7.504,
            7.5703,
            7.5997,
            7.6864,
            7.6152,
            7.5981,
            7.7586,
            7.5428,
            7.6001,
            7.6715,
            7.5853,
            7.6803,
            7.7409,
            7.8321,
            7.6796,
            7.7183,
            7.6785,
            7.7611,
            7.6778,
            7.7414,
            7.7983,
            7.7473,
            7.7914,
            7.6701,
            7.6341,
            7.839,
            7.8485,
            7.7851,
            7.5951,
            7.8054,
            7.7792,
            7.6576,
            7.6942,
            7.74,
            7.797,
            7.8395,
            7.6813,
            7.8598,
            7.5852,
            7.8108,
            7.8068,
            7.9005,
            7.775,
            8.017,
            7.8751,
            7.8579,
            7.7888,
            7.9827,
            7.8926,
            7.8996,
            7.8241,
            7.869,
            7.916,
            7.9929,
            7.9009,
            7.847,
            7.9553,
            7.8654,
            7.9483,
            7.7285,
            7.8801,
            7.8452,
            7.9886,
            7.9396,
            7.9178,
            7.9107,
            8.1076,
            8.1552,
            7.9175,
            7.8425,
            7.9867,
            8.045,
            8.0372,
            7.9958,
            7.8699,
            7.9373,
            8.1738,
            7.9363,
            7.9757,
            7.9323,
            7.9815,
            7.9546,
            8.0212,
            8.0259,
            8.0021,
            8.0082,
            8.0478,
            7.9886,
            8.0032,
            8.0835,
            7.9605,
            8.0135,
            8.1457,
            7.9701,
            8.0258,
            8.0599,
            7.9991,
            8.0752,
            8.0807,
            7.9942,
            8.0953,
            8.0719,
            8.1011,
            8.0521,
            8.0911,
            7.9288,
            7.9763,
            7.9641,
            7.9839,
            8.0845,
            8.0636,
            8.0602,
            8.0674,
            8.0012,
            7.9963,
            8.03,
            7.9418,
            8.2437,
            8.1018,
            7.9922,
            8.027,
            8.0318,
            7.9647,
            7.9851,
            8.0126,
            8.0437,
            8.0241,
            8.0695,
            7.9144,
            7.9801,
            7.9398,
            8.0854,
            7.9855,
            7.9341,
            7.9348,
            7.9853,
            7.8077,
            7.9761,
            7.9648,
            7.8294,
            7.9472,
            8.023,
            7.9108,
            7.8795,
            7.9199,
            7.9182,
            7.8614,
            7.9015,
            7.8591,
            7.8212,
            7.8857,
            8.0044,
            7.7865,
            7.7553,
            7.6708,
            7.6964,
            7.722,
            7.6839,
            7.679,
            7.6693,
            7.7541,
            7.5963,
            7.5681,
            7.5417,
            7.5648,
            7.6458,
            7.6243,
            7.5623,
            7.4784,
            7.5101,
            7.5776,
            7.5682,
            7.4696,
            7.3729,
            7.5549,
            7.4304,
            7.3656,
            7.5374,
            7.3238,
            7.381,
            7.3656,
            7.351,
            7.2991,
            7.2154,
            7.3059,
            7.2122,
            7.1914,
            7.2474,
            7.3661,
            7.1421,
            7.1306,
            7.042,
            7.0875,
            7.1672,
            7.0135,
            7.0519,
            7.0094,
            7.0257,
            7.0581,
            6.9817,
            6.9166,
            6.8928,
            6.8946,
            6.8093,
            6.8122,
            6.8825,
            6.8338,
            6.8123,
            6.8067,
            6.7661,
            6.6408,
            6.6882,
            6.6956,
            6.616,
            6.6558,
            6.6816,
            6.5535,
            6.5566,
            6.4458,
            6.5905,
            6.5033,
            6.5326,
            6.638,
            6.4257,
            6.5356,
            6.3604,
            6.3693,
            6.3197,
            6.415,
            6.3024,
            6.2502,
            6.3407,
            6.2701,
            6.248,
            6.2567,
            6.1366,
            6.2662,
            6.1785,
            6.1247,
            6.1312,
            6.1459,
            6.1842,
            6.068,
            6.057,
            6.0973,
            6.0576,
            6.1201,
            6.0853,
            6.0991,
            6.1146,
            5.9394,
            6.0019,
            6.0018,
            5.9426,
            5.8732,
            6.0601,
            5.9898,
            5.9494,
            5.8449,
            5.9134,
            5.7991,
            5.8639,
            5.8871,
            5.8238,
            6.0033,
            5.9095,
            5.8761,
            6.0736,
            5.9173,
            5.9139,
            5.9187,
            5.8799,
            5.7853,
            6.0367,
            5.9291,
            5.7298,
            5.7785,
            5.8793,
            5.9542,
            5.9457,
            6.1079,
            5.7799,
            5.9617,
            5.8628,
            5.9191,
            6.0108,
            5.854,
            6.0123,
            5.9036,
            5.9119,
            6.1404,
            5.958,
            5.928,
            6.0661,
            5.9259,
            6.0426,
            6.033,
            6.1338,
            5.8922,
            6.1363,
            5.9879,
            5.9816,
            6.2397,
            5.9629,
            6.099,
            6.0259,
            6.2405,
            6.1237,
            6.2098,
            6.007,
            6.0625,
            6.2413,
            6.197,
            6.3022,
            6.3774,
            6.4518,
            6.076,
            6.0413,
            6.0743,
            6.147,
            6.0905,
            6.2133,
            6.1824,
            6.2066,
            6.1516,
            6.276,
            6.2447,
            5.9318,
            6.4504,
            6.2747,
            6.4148,
            6.2546,
            6.0253,
            6.4855,
            6.0113,
            6.3352,
            6.3861,
            6.4638,
            6.0908,
            5.9392,
            6.3529,
            6.3894,
            6.0686,
            6.1586,
            5.8552,
            5.8263,
            6.1852,
            5.9895,
            6.2769,
            6.3125,
            5.3058,
            5.9167,
            5.9841
          ],
          [
            0.1975,
            0.1951,
            0.15911,
            0.19435,
            0.16469,
            0.20503,
            0.16129,
            0.19242,
            0.15521,
            0.18465,
            0.15387,
            0.19384,
            0.19343,
            0.16305,
            0.2029,
            0.1579,
            0.18988,
            0.1531,
            0.18301,
            0.14955,
            0.181,
            0.17697,
            0.14438,
            0.17398,
            0.14338,
            0.17349,
            0.1411,
            0.17459,
            0.14067,
            0.17122,
            0.1715,
            0.14072,
            0.17178,
            0.14321,
            0.17687,
            0.14357,
            0.17287,
            0.1382,
            0.17423,
            0.14382,
            0.16837,
            0.16355,
            0.13222,
            0.16638,
            0.13989,
            0.17133,
            0.13832,
            0.17408,
            0.14356,
            0.17994,
            0.1875,
            0.152,
            0.1804,
            0.14282,
            0.17066,
            0.13649,
            0.1671,
            0.13402,
            0.16073,
            0.15658,
            0.12708,
            0.15393,
            0.12514,
            0.15462,
            0.12904,
            0.16077,
            0.12878,
            0.15654,
            0.15445,
            0.12534,
            0.15293,
            0.12395,
            0.14915,
            0.12086,
            0.14732,
            0.11796,
            0.14243,
            0.14242,
            0.11581,
            0.14232,
            0.1149,
            0.14326,
            0.12553,
            0.14776,
            0.11723,
            0.14311,
            0.1448,
            0.11798,
            0.1379,
            0.11108,
            0.13252,
            0.10824,
            0.13212,
            0.1089,
            0.13409,
            0.10751,
            0.12837,
            0.12777,
            0.10526,
            0.1262,
            0.10048,
            0.12204,
            0.098513,
            0.11934,
            0.099136,
            0.11905,
            0.11876,
            0.096905,
            0.11719,
            0.095985,
            0.11598,
            0.093534,
            0.11781,
            0.097074,
            0.11651,
            0.095491,
            0.1187,
            0.12196,
            0.097411,
            0.11366,
            0.090767,
            0.11276,
            0.095167,
            0.12151,
            0.099224,
            0.12179,
            0.11922,
            0.096282,
            0.11755,
            0.095776,
            0.1181,
            0.096183,
            0.11906,
            0.099997,
            0.12147,
            0.099888,
            0.12329,
            0.12493,
            0.10095,
            0.12728,
            0.10351,
            0.12742,
            0.10448,
            0.12924,
            0.10569,
            0.13106,
            0.10866,
            0.13552,
            0.1343,
            0.10729,
            0.1313,
            0.10769,
            0.13079,
            0.10734,
            0.13133,
            0.10494,
            0.12451,
            0.099559,
            0.12191,
            0.12434,
            0.10092,
            0.12148,
            0.096349,
            0.11711,
            0.093296,
            0.11259,
            0.090664,
            0.10908,
            0.086805,
            0.10495,
            0.10276,
            0.082824,
            0.10095,
            0.082826,
            0.10276,
            0.087519,
            0.10669,
            0.086766,
            0.10477,
            0.10542,
            0.088776,
            0.11097,
            0.093874,
            0.123,
            0.10074,
            0.11942,
            0.092376,
            0.11024,
            0.086201,
            0.10393,
            0.10324,
            0.082122,
            0.099373,
            0.082887,
            0.10627,
            0.083814,
            0.10056,
            0.084415,
            0.10477,
            0.084758,
            0.10238,
            0.10136,
            0.081748,
            0.10083,
            0.084733,
            0.098176,
            0.078055,
            0.095969,
            0.078508,
            0.097364,
            0.098601,
            0.080092,
            0.097789,
            0.07894,
            0.095983,
            0.079274,
            0.098983,
            0.082197,
            0.10145,
            0.082423,
            0.098018,
            0.096349,
            0.080861,
            0.10158,
            0.082712,
            0.10215,
            0.082045,
            0.098707,
            0.081606,
            0.1027,
            0.082774,
            0.10011,
            0.10335,
            0.085338,
            0.10385,
            0.085982,
            0.10576,
            0.087927,
            0.10797,
            0.088193,
            0.10638,
            0.085089,
            0.10349,
            0.10191,
            0.083531,
            0.1056,
            0.088141,
            0.10673,
            0.084281,
            0.097421,
            0.076116,
            0.091948,
            0.093056,
            0.078491,
            0.097218,
            0.078799,
            0.096259,
            0.079541,
            0.097819,
            0.078847,
            0.09376,
            0.093372,
            0.07506,
            0.090896,
            0.075133,
            0.092812,
            0.076123,
            0.092519,
            0.073988,
            0.090025,
            0.071923,
            0.086021,
            0.086349,
            0.070047,
            0.087597,
            0.070371,
            0.084822,
            0.069019,
            0.0835,
            0.067839,
            0.083492,
            0.083778,
            0.068847,
            0.084936,
            0.069262,
            0.085476,
            0.070141,
            0.08711,
            0.070112,
            0.083077,
            0.068022,
            0.083161,
            0.082262,
            0.067173,
            0.083105,
            0.067875,
            0.084171,
            0.072751,
            0.091641,
            0.0738,
            0.086828,
            0.068809,
            0.082033,
            0.066479,
            0.079849,
            0.079483,
            0.065104,
            0.084282,
            0.072693,
            0.084422,
            0.067432,
            0.081646,
            0.065859,
            0.081116,
            0.067066,
            0.084004,
            0.083665,
            0.067491,
            0.082644,
            0.067592,
            0.083916,
            0.068154,
            0.08623,
            0.073377,
            0.088465,
            0.07075,
            0.085542,
            0.085215,
            0.069989,
            0.087088,
            0.070081,
            0.084594,
            0.067959,
            0.081392,
            0.065525,
            0.079365,
            0.066553,
            0.083672,
            0.080767,
            0.063978,
            0.079882,
            0.064922,
            0.078524,
            0.063604,
            0.078833,
            0.065404,
            0.082867,
            0.069552,
            0.084343,
            0.0833,
            0.06734,
            0.08152,
            0.066448,
            0.080256,
            0.066185,
            0.079308,
            0.063027,
            0.076855,
            0.077516,
            0.064292,
            0.079444,
            0.065983,
            0.080365,
            0.064997,
            0.079587,
            0.065865,
            0.080589,
            0.064693,
            0.079241,
            0.082507,
            0.071375,
            0.08263,
            0.065212,
            0.079529,
            0.064365,
            0.077723,
            0.063533,
            0.077473,
            0.063759,
            0.079326,
            0.080559,
            0.065086,
            0.079477,
            0.064977,
            0.079118,
            0.065511,
            0.079748,
            0.065038,
            0.079314,
            0.064679,
            0.078584,
            0.078812,
            0.064563,
            0.079299,
            0.063995,
            0.079087,
            0.064733,
            0.077832,
            0.062125,
            0.077701,
            0.063346,
            0.077356,
            0.074346,
            0.06164,
            0.077268,
            0.064224,
            0.080726,
            0.066362,
            0.0812,
            0.066168,
            0.079022,
            0.078137,
            0.065633,
            0.082271,
            0.069049,
            0.086888,
            0.071164,
            0.085273,
            0.06941,
            0.084553,
            0.070081,
            0.088764,
            0.087608,
            0.070095,
            0.084351,
            0.069151,
            0.083655,
            0.068802,
            0.083774,
            0.069224,
            0.083485,
            0.06724,
            0.082885,
            0.083203,
            0.068391,
            0.083429,
            0.067374,
            0.083699,
            0.070297,
            0.087553,
            0.070653,
            0.084077,
            0.08477,
            0.069019,
            0.083884,
            0.069715,
            0.086191,
            0.070962,
            0.088409,
            0.073678,
            0.090018,
            0.074492,
            0.09319,
            0.092587,
            0.072155,
            0.08658,
            0.071199,
            0.085895,
            0.068616,
            0.084309,
            0.070132,
            0.086437,
            0.070658,
            0.087088,
            0.08711,
            0.072152,
            0.088642,
            0.071558,
            0.089182,
            0.075503,
            0.094052,
            0.07559,
            0.093671,
            0.093816,
            0.076469,
            0.094088,
            0.076941,
            0.093041,
            0.076313,
            0.094344,
            0.077063,
            0.092889,
            0.075017,
            0.091611,
            0.092986,
            0.076146,
            0.094387,
            0.078434,
            0.096508,
            0.077626,
            0.096151,
            0.080128,
            0.097667,
            0.095996,
            0.077922,
            0.094125,
            0.076109,
            0.093198,
            0.076468,
            0.094123,
            0.077148,
            0.098215,
            0.098027,
            0.076746,
            0.092543,
            0.074623,
            0.090701,
            0.074101,
            0.091002,
            0.074182,
            0.090144,
            0.089724,
            0.073211,
            0.089526,
            0.072596,
            0.087876,
            0.070734,
            0.085944,
            0.070731,
            0.08739,
            0.073295,
            0.089593,
            0.087797,
            0.070265,
            0.085311,
            0.069554,
            0.086915,
            0.071975,
            0.087219,
            0.069572,
            0.083272,
            0.081884,
            0.066635,
            0.080901,
            0.066266,
            0.082381,
            0.06679,
            0.082183,
            0.067114,
            0.080818,
            0.080077,
            0.064219,
            0.077034,
            0.062846,
            0.077779,
            0.063517,
            0.078132,
            0.062693,
            0.076008,
            0.076065,
            0.061987,
            0.075663,
            0.062406,
            0.077786,
            0.064646,
            0.080827,
            0.065945,
            0.078665,
            0.078018,
            0.063129,
            0.077343,
            0.063184,
            0.077624,
            0.063602,
            0.076783,
            0.060748,
            0.073468,
            0.072636,
            0.059593,
            0.074821,
            0.061852,
            0.075545,
            0.060483,
            0.072874,
            0.058588,
            0.071359,
            0.071299,
            0.05817,
            0.072412,
            0.057988,
            0.069856,
            0.056531,
            0.069146,
            0.068976,
            0.056133,
            0.068566,
            0.056442,
            0.069665,
            0.056356,
            0.068824,
            0.056378,
            0.068025,
            0.067859,
            0.055488,
            0.067609,
            0.054738,
            0.066593,
            0.054265,
            0.066692,
            0.054467,
            0.065878,
            0.065835,
            0.053931,
            0.066429,
            0.054628,
            0.066984,
            0.055757,
            0.069334,
            0.06891,
            0.05696,
            0.070346,
            0.057375,
            0.069713,
            0.056555,
            0.068809,
            0.056588,
            0.069964,
            0.070842,
            0.058302,
            0.071151,
            0.05695,
            0.068638,
            0.055989,
            0.069238,
            0.069548,
            0.056866,
            0.069989,
            0.05719,
            0.070232,
            0.057571,
            0.071295,
            0.071919,
            0.059545,
            0.073073,
            0.059306,
            0.073095,
            0.060325,
            0.074466,
            0.060906,
            0.075099,
            0.075698,
            0.062469,
            0.076727,
            0.063553,
            0.078712,
            0.065072,
            0.079823,
            0.080274,
            0.065686,
            0.081535,
            0.06703,
            0.082623,
            0.067695,
            0.083219,
            0.083419,
            0.068747,
            0.084794,
            0.069604,
            0.086495,
            0.071482,
            0.088137,
            0.088974,
            0.073117,
            0.090132,
            0.074575,
            0.09222,
            0.076219,
            0.093979,
            0.094281,
            0.077029,
            0.095094,
            0.078313,
            0.097555,
            0.080413,
            0.099576,
            0.10002,
            0.082424,
            0.10153,
            0.084028,
            0.10412,
            0.085517,
            0.10569,
            0.10619,
            0.087764,
            0.10866,
            0.08967,
            0.11005,
            0.11051,
            0.091257,
            0.11294,
            0.092489,
            0.11523,
            0.094247,
            0.11624,
            0.11766,
            0.097579,
            0.12071,
            0.099037,
            0.12161,
            0.12387,
            0.10197,
            0.12566,
            0.10418,
            0.12797,
            0.10584,
            0.13231,
            0.132,
            0.10985,
            0.13618,
            0.11274,
            0.1391,
            0.14068,
            0.11634,
            0.14442,
            0.11973,
            0.14757,
            0.14977,
            0.12342,
            0.15361,
            0.12733,
            0.15693,
            0.15822,
            0.13261,
            0.16286,
            0.13533,
            0.17171,
            0.17001,
            0.1417,
            0.17872,
            0.14952,
            0.18462,
            0.1873,
            0.15586,
            0.19457,
            0.16166,
            0.20226,
            0.20924,
            0.17368,
            0.21685,
            0.1813,
            0.2292,
            0.23355,
            0.19501,
            0.24707,
            0.20752,
            0.26239,
            0.26765
          ]
        ]
      }
    }
  },
  "experimental_conditions": {
    "001": {
      "facility": {
        "0": [
          {
            "x4_code": "(LINAC,1USARPI)",
            "free_txt": [
              " RPI electron linac"
            ]
          }
        ]
      },
      "method": {
        "0": [
          {
            "x4_code": "(TOF)",
            "free_txt": []
          }
        ]
      },
      "status": {
        "0": [
          {
            "x4_code": "(APRVD)",
            "free_txt": [
              " Approved by author",
              "Data received on magnetic tape from C.Goulding,",
              " 1 August 1972."
            ]
          }
        ]
      }
    },
    "002": {
      "err-analys": {
        "0": [
          {
            "x4_code": "(ERR-S)",
            "free_txt": [
              " Data error given is statistical error."
            ]
          }
        ]
      },
      "sample": {
        "0": [
          {
            "x4_code": null,
            "free_txt": [
              "1-inch thick depleted uranium metal 99.75% 238U,",
              " 0.25% 235U.  Sample thickness 0.121 atoms/b."
            ]
          }
        ]
      }
    }
  }
}