{
  "entry": "10056",
  "last_updated": "2011-01-13",
  "number_of_revisions": "4",
  "histories": [
    {
      "x4_code": "(19710408C)",
      "free_txt": []
    },
    {
      "x4_code": "(19810529A)",
      "free_txt": [
        " Converted to REACTION formalism"
      ]
    },
    {
      "x4_code": "(19990907A)",
      "free_txt": [
        " Converted to new date formalism."
      ]
    },
    {
      "x4_code": "(20101014A)",
      "free_txt": [
        " VM: BIB updates. Error correlation factor",
        "            added. Subentry 002 updated; moved some",
        "            data to subentries 003,004,005."
      ]
    }
  ],
  "bib_record": {
    "title": "Fission cross sections from POMMARD.",
    "authors": [
      {
        "name": "D.W.Bergen"
      }
    ],
    "institutes": [
      {
        "x4_code": "(1USALAS)",
        "free_txt": []
      }
    ],
    "references": [
      {
        "x4_code": "(R,LA-4420,21,197006)",
        "free_txt": [],
        "publication_year": "1970",
        "pointer": "0"
      }
    ]
  },
  "reactions": {
    "002": {
      "0": {
        "x4_code": "(92-U-233(N,F),,SIG)",
        "children": [
          {
            "code": [
              "92-U-233",
              [
                "N,F"
              ],
              ",,SIG"
            ],
            "type": null,
            "target": "92-U-233",
            "process": "N,F",
            "sf49": ",,SIG",
            "sf4": null,
            "sf5": null,
            "sf6": "SIG",
            "sf7": null,
            "sf8": null,
            "sf9": null
          }
        ],
        "type": null,
        "free_text": ""
      }
    },
    "003": {
      "0": {
        "x4_code": "(92-U-233(N,F),,SIG)",
        "children": [
          {
            "code": [
              "92-U-233",
              [
                "N,F"
              ],
              ",,SIG"
            ],
            "type": null,
            "target": "92-U-233",
            "process": "N,F",
            "sf49": ",,SIG",
            "sf4": null,
            "sf5": null,
            "sf6": "SIG",
            "sf7": null,
            "sf8": null,
            "sf9": null
          }
        ],
        "type": null,
        "free_text": ""
      }
    },
    "004": {
      "0": {
        "x4_code": "(92-U-233(N,F),,SIG)",
        "children": [
          {
            "code": [
              "92-U-233",
              [
                "N,F"
              ],
              ",,SIG"
            ],
            "type": null,
            "target": "92-U-233",
            "process": "N,F",
            "sf49": ",,SIG",
            "sf4": null,
            "sf5": null,
            "sf6": "SIG",
            "sf7": null,
            "sf8": null,
            "sf9": null
          }
        ],
        "type": null,
        "free_text": ""
      }
    },
    "005": {
      "0": {
        "x4_code": "(92-U-233(N,F),,SIG)",
        "children": [
          {
            "code": [
              "92-U-233",
              [
                "N,F"
              ],
              ",,SIG"
            ],
            "type": null,
            "target": "92-U-233",
            "process": "N,F",
            "sf49": ",,SIG",
            "sf4": null,
            "sf5": null,
            "sf6": "SIG",
            "sf7": null,
            "sf8": null,
            "sf9": null
          }
        ],
        "type": null,
        "free_text": ""
      }
    }
  },
  "data_tables": {
    "001": {
      "common": null
    },
    "002": {
      "common": {
        "heads": [
          "ERR-SYS"
        ],
        "units": [
          "PER-CENT"
        ],
        "data": [
          [
            4.1
          ]
        ]
      },
      "data": {
        "heads": [
          "EN",
          "DATA",
          "ERR-T"
        ],
        "units": [
          "EV",
          "B",
          "PER-CENT"
        ],
        "data": [
          [
            10.0249,
            10.0749,
            10.1249,
            10.1749,
            10.2249,
            10.2749,
            10.3249,
            10.3749,
            10.4249,
            10.4749,
            10.5249,
            10.5749,
            10.6249,
            10.6749,
            10.7249,
            10.7749,
            10.8249,
            10.8749,
            10.9249,
            10.9749,
            11.0249,
            11.0749,
            11.1249,
            11.1749,
            11.2249,
            11.2749,
            11.3249,
            11.3749,
            11.4249,
            11.4749,
            11.5249,
            11.5749,
            11.6249,
            11.6749,
            11.7249,
            11.7749,
            11.8249,
            11.8749,
            11.9249,
            11.9749,
            12.0249,
            12.0749,
            12.1249,
            12.1749,
            12.2249,
            12.2749,
            12.3249,
            12.3749,
            12.4249,
            12.4749,
            12.5249,
            12.5749,
            12.6249,
            12.6749,
            12.7249,
            12.7749,
            12.8249,
            12.8749,
            12.9249,
            12.9749,
            13.0249,
            13.0749,
            13.1249,
            13.1749,
            13.2249,
            13.2749,
            13.3249,
            13.3749,
            13.4249,
            13.4749,
            13.5249,
            13.5749,
            13.6249,
            13.6749,
            13.7249,
            13.7749,
            13.8249,
            13.8749,
            13.9249,
            13.9749,
            14.0249,
            14.0749,
            14.1249,
            14.1749,
            14.2249,
            14.2749,
            14.3249,
            14.3749,
            14.4249,
            14.4749,
            14.5249,
            14.5749,
            14.6249,
            14.6749,
            14.7249,
            14.7749,
            14.8249,
            14.8749,
            14.9249,
            14.9749,
            15.0249,
            15.0749,
            15.1249,
            15.1749,
            15.2249,
            15.2749,
            15.3249,
            15.3749,
            15.4249,
            15.4749,
            15.5249,
            15.5749,
            15.6249,
            15.6749,
            15.7249,
            15.7749,
            15.8249,
            15.8749,
            15.9249,
            15.9749,
            16.0249,
            16.0749,
            16.1249,
            16.1749,
            16.2249,
            16.2749,
            16.3249,
            16.3749,
            16.4249,
            16.4749,
            16.5249,
            16.5749,
            16.6249,
            16.6749,
            16.7249,
            16.7749,
            16.8249,
            16.8749,
            16.9249,
            16.9749,
            17.0249,
            17.0749,
            17.1249,
            17.1749,
            17.2249,
            17.2749,
            17.3249,
            17.3749,
            17.4249,
            17.4749,
            17.5249,
            17.5749,
            17.6249,
            17.6749,
            17.7249,
            17.7749,
            17.8249,
            17.8749,
            17.9249,
            17.9749,
            18.0249,
            18.0749,
            18.1249,
            18.1749,
            18.2249,
            18.2749,
            18.3249,
            18.3749,
            18.4249,
            18.4749,
            18.5249,
            18.5749,
            18.6249,
            18.6749,
            18.7249,
            18.7749,
            18.8249,
            18.8749,
            18.9249,
            18.9749,
            19.0249,
            19.0749,
            19.1249,
            19.1749,
            19.2249,
            19.2749,
            19.3249,
            19.3749,
            19.4249,
            19.4749,
            19.5249,
            19.5749,
            19.6249,
            19.6749,
            19.7249,
            19.7749,
            19.8249,
            19.8749,
            19.9249,
            19.9749,
            20.0249,
            20.0749,
            20.1249,
            20.1749,
            20.2249,
            20.2749,
            20.3249,
            20.3749,
            20.4249,
            20.4749,
            20.5249,
            20.5749,
            20.6249,
            20.6749,
            20.7249,
            20.7749,
            20.8249,
            20.8749,
            20.9249,
            20.9749,
            21.0249,
            21.0749,
            21.1249,
            21.1749,
            21.2249,
            21.2749,
            21.3249,
            21.3749,
            21.4249,
            21.4749,
            21.5249,
            21.5749,
            21.6249,
            21.6749,
            21.7249,
            21.7749,
            21.8249,
            21.8749,
            21.9249,
            21.9749,
            22.0249,
            22.0749,
            22.1249,
            22.1749,
            22.2249,
            22.2749,
            22.3249,
            22.3749,
            22.4249,
            22.4749,
            22.5249,
            22.5749,
            22.6249,
            22.6749,
            22.7249,
            22.7749,
            22.8249,
            22.8749,
            22.9249,
            22.9749,
            23.0249,
            23.0749,
            23.1249,
            23.1749,
            23.2249,
            23.2749,
            23.3249,
            23.3749,
            23.4249,
            23.4749,
            23.5249,
            23.5749,
            23.6249,
            23.6749,
            23.7249,
            23.7749,
            23.8249,
            23.8749,
            23.9249,
            23.9749,
            24.0249,
            24.0749,
            24.1249,
            24.1749,
            24.2249,
            24.2749,
            24.3249,
            24.3749,
            24.4249,
            24.4749,
            24.5249,
            24.5749,
            24.6249,
            24.6749,
            24.7249,
            24.7749,
            24.8249,
            24.8749,
            24.9249,
            24.9749,
            25.0249,
            25.0749,
            25.1249,
            25.1749,
            25.2249,
            25.2749,
            25.3249,
            25.3749,
            25.4249,
            25.4749,
            25.5249,
            25.5749,
            25.6249,
            25.6749,
            25.7249,
            25.7749,
            25.8249,
            25.8749,
            25.9249,
            25.9749,
            26.0249,
            26.0749,
            26.1249,
            26.1749,
            26.2249,
            26.2749,
            26.3249,
            26.3749,
            26.4249,
            26.4749,
            26.5249,
            26.5749,
            26.6249,
            26.6749,
            26.7249,
            26.7749,
            26.8249,
            26.8749,
            26.9249,
            26.9749,
            27.0249,
            27.0749,
            27.1249,
            27.1749,
            27.2249,
            27.2749,
            27.3249,
            27.3749,
            27.4249,
            27.4749,
            27.5249,
            27.5749,
            27.6249,
            27.6749,
            27.7249,
            27.7749,
            27.8249,
            27.8749,
            27.9249,
            27.9749,
            28.0249,
            28.0749,
            28.1249,
            28.1749,
            28.2249,
            28.2749,
            28.3249,
            28.3749,
            28.4249,
            28.4749,
            28.5249,
            28.5749,
            28.6249,
            28.6749,
            28.7249,
            28.7749,
            28.8249,
            28.8749,
            28.9249,
            28.9749,
            29.0249,
            29.0749,
            29.1249,
            29.1749,
            29.2249,
            29.2749,
            29.3249,
            29.3749,
            29.4249,
            29.4749,
            29.5249,
            29.5749,
            29.6249,
            29.6749,
            29.7249,
            29.7749,
            29.8249,
            29.8749,
            29.9249,
            29.9749,
            30.0249,
            30.0749,
            30.1249,
            30.1749,
            30.2249,
            30.2749,
            30.3249,
            30.3749,
            30.4249,
            30.4749,
            30.5249,
            30.5749,
            30.6249,
            30.6749,
            30.7249,
            30.7749,
            30.8249,
            30.8749,
            30.9249,
            30.9749,
            31.0249,
            31.0749,
            31.1249,
            31.1749,
            31.2249,
            31.2749,
            31.3249,
            31.3749,
            31.4249,
            31.4749,
            31.5249,
            31.5749,
            31.6249,
            31.6749,
            31.7249,
            31.7749,
            31.8249,
            31.8749,
            31.9249,
            31.9749,
            32.0249,
            32.0749,
            32.1249,
            32.1749,
            32.2249,
            32.2749,
            32.3249,
            32.3749,
            32.4249,
            32.4749,
            32.5249,
            32.5749,
            32.6249,
            32.6749,
            32.7249,
            32.7749,
            32.8249,
            32.8749,
            32.9249,
            32.9749,
            33.0249,
            33.0749,
            33.1249,
            33.1749,
            33.2249,
            33.2749,
            33.3249,
            33.3749,
            33.4249,
            33.4749,
            33.5249,
            33.5749,
            33.6249,
            33.6749,
            33.7249,
            33.7749,
            33.8249,
            33.8749,
            33.9249,
            33.9749,
            34.0249,
            34.0749,
            34.1249,
            34.1749,
            34.2249,
            34.2749,
            34.3249,
            34.3749,
            34.4249,
            34.4749,
            34.5249,
            34.5749,
            34.6249,
            34.6749,
            34.7249,
            34.7749,
            34.8249,
            34.8749,
            34.9249,
            34.9749
          ],
          [
            253.7,
            278.35,
            314.64,
            456.63,
            474.17,
            617.49,
            708.01,
            674.55,
            681.51,
            583.3,
            492.22,
            377.43,
            298.06,
            212.09,
            178.91,
            131.45,
            149.95,
            140.62,
            116.93,
            123.59,
            101.34,
            87.321,
            89.717,
            122.5,
            113.25,
            101.63,
            94.039,
            76.451,
            89.877,
            77.625,
            65.075,
            70.517,
            71.832,
            77.568,
            74.663,
            65.085,
            56.979,
            58.468,
            76.173,
            81.111,
            77.397,
            85.228,
            77.691,
            93.435,
            96.317,
            107.2,
            125.67,
            148.56,
            179.86,
            225.38,
            219.94,
            256.73,
            345.63,
            395.45,
            421.65,
            407.26,
            325.25,
            360.43,
            264.13,
            218.37,
            181.52,
            143.83,
            105.8,
            81.584,
            89.585,
            71.649,
            78.919,
            80.371,
            93.488,
            87.867,
            94.666,
            111.45,
            126.44,
            125.62,
            102.98,
            97.287,
            97.289,
            79.25,
            67.194,
            73.159,
            60.057,
            46.982,
            26.649,
            22.66,
            25.146,
            37.604,
            31.02,
            28.654,
            25.021,
            21.936,
            28.231,
            16.802,
            26.641,
            20.119,
            23.597,
            27.849,
            30.515,
            43.232,
            52.816,
            63.711,
            71.829,
            89.913,
            120.66,
            179.51,
            235.5,
            216.28,
            220.25,
            224.58,
            178.84,
            177.18,
            171.29,
            121.2,
            128.98,
            127.87,
            129.04,
            113.67,
            97.903,
            123.35,
            140.21,
            143.8,
            161.41,
            167.99,
            173.87,
            183.91,
            199.3,
            196.76,
            209.92,
            206.88,
            183.76,
            209.63,
            194.46,
            174.33,
            142.36,
            116.8,
            89.276,
            66.495,
            53.847,
            50.87,
            35.526,
            43.888,
            48.398,
            42.532,
            30.584,
            25.695,
            37.185,
            30.756,
            32.472,
            24.765,
            23.176,
            35.83,
            42.577,
            34.181,
            51.885,
            43.234,
            58.998,
            74.204,
            81.44,
            82.744,
            82.996,
            86.101,
            83.673,
            79.252,
            96.478,
            84.581,
            88.819,
            83.467,
            90.572,
            99.887,
            113.74,
            128.32,
            143.85,
            142.77,
            198.5,
            222.41,
            222.63,
            252.37,
            296.64,
            295.8,
            271.95,
            234.54,
            246.75,
            194.69,
            179.01,
            163.66,
            133.27,
            94.269,
            91.442,
            81.557,
            70.707,
            63.986,
            55.856,
            38.663,
            43.817,
            41.554,
            63.183,
            49.765,
            54.593,
            57.944,
            50.557,
            53.323,
            62.015,
            65.784,
            74.707,
            74.964,
            89.961,
            86.987,
            108.03,
            105.27,
            130.92,
            127.59,
            112.65,
            122.52,
            105.78,
            114.99,
            84.358,
            83.073,
            92.283,
            75.505,
            67.106,
            81.411,
            86.304,
            71.249,
            79.446,
            107.52,
            92.165,
            104.09,
            99.033,
            123.65,
            128.67,
            131.41,
            183.16,
            195.44,
            205.55,
            274.79,
            318.33,
            293.45,
            345.77,
            361.46,
            341.24,
            346.49,
            405.48,
            380.75,
            393.31,
            380.81,
            372.86,
            379.5,
            381.21,
            339.55,
            321.38,
            297.52,
            263.68,
            224.78,
            208.57,
            170.79,
            132.51,
            129.82,
            121.51,
            116.99,
            113.33,
            98.062,
            93.462,
            90.675,
            89.677,
            99.611,
            94.117,
            87.344,
            83.038,
            81.989,
            79.913,
            87.518,
            75.35,
            73.792,
            114.48,
            105.66,
            96.566,
            71.311,
            78.512,
            80.367,
            68.783,
            55.358,
            57.845,
            67.907,
            60.569,
            55.324,
            54.37,
            52.965,
            45.102,
            53.978,
            48.32,
            53.032,
            47.099,
            43.255,
            46.21,
            49.909,
            57.412,
            64.137,
            73.906,
            71.074,
            52.88,
            62.277,
            73.817,
            96.146,
            102.9,
            88.392,
            115.3,
            98.537,
            115.85,
            89.374,
            79.525,
            72.602,
            69.657,
            62.615,
            64.705,
            57.632,
            64.381,
            67.328,
            64.615,
            46.58,
            58.222,
            52.173,
            47.909,
            58.035,
            57.572,
            50.465,
            58.763,
            58.386,
            49.339,
            58.075,
            61.784,
            61.963,
            57.817,
            48.53,
            49.806,
            50.133,
            57.078,
            43.625,
            38.436,
            36.092,
            38.022,
            36.978,
            38.345,
            31.283,
            29.943,
            27.096,
            31.718,
            29.326,
            32.049,
            36.613,
            38.382,
            34.853,
            37.128,
            44.818,
            41.716,
            40.333,
            44.427,
            48.586,
            46.238,
            49.858,
            52.346,
            55.571,
            43.212,
            42.027,
            54.4,
            50.985,
            54.795,
            57.003,
            67.036,
            63.045,
            59.123,
            70.082,
            64.334,
            73.829,
            83.565,
            90.179,
            75.675,
            96.913,
            99.762,
            110.25,
            90.498,
            77.041,
            88.878,
            84.629,
            77.472,
            79.155,
            84.935,
            66.948,
            59.192,
            47.531,
            42.3,
            37.349,
            43.9,
            39.243,
            36.405,
            33.777,
            24.634,
            21.103,
            29.449,
            28.429,
            35.572,
            27.702,
            25.186,
            29.762,
            38.811,
            39.976,
            33.174,
            40.877,
            39.693,
            42.556,
            42.432,
            43.697,
            46.975,
            61.187,
            60.38,
            59.156,
            57.802,
            50.004,
            55.325,
            55.562,
            46.008,
            45.629,
            45.559,
            38.497,
            38.105,
            49.439,
            43.138,
            47.491,
            57.742,
            62.878,
            63.984,
            61.549,
            64.654,
            68.227,
            67.877,
            65.782,
            65.632,
            73.003,
            73.522,
            68.136,
            69.36,
            82.957,
            71.683,
            60.57,
            51.715,
            45.079,
            44.872,
            40.918,
            40.543,
            38.306,
            36.485,
            36.934,
            36.612,
            39.819,
            43.109,
            47.143,
            47.185,
            49.89,
            46.644,
            43.881,
            51.101,
            52.631,
            47.083,
            58.751,
            53.357,
            57.171,
            59.541,
            58.656,
            58.651,
            53.187,
            44.762,
            46.784,
            53.309,
            55.746,
            61.282,
            55.324,
            56.056,
            66.444,
            65.764,
            64.156,
            65.146,
            61.207,
            59.31,
            56.162,
            56.939,
            63.386,
            78.779,
            73.342,
            62.784,
            58.73,
            62.817,
            61.262,
            58.379,
            61.243,
            62.403,
            59.205,
            52.198,
            39.539,
            38.155,
            45.348,
            44.553,
            41.327
          ],
          [
            59.87,
            32.04,
            30.35,
            33.61,
            30.67,
            32.08,
            33.6,
            32.56,
            33.07,
            32.7,
            31.83,
            31.89,
            32.23,
            30.64,
            31.8,
            30.62,
            32.4,
            31.75,
            33.23,
            31.87,
            30.87,
            30.81,
            28.51,
            31.45,
            32.59,
            32.72,
            32.72,
            33.22,
            31.18,
            31.02,
            33.47,
            30.95,
            28.73,
            29.85,
            33.7,
            31.89,
            35.16,
            40.9,
            30.57,
            32.33,
            32.11,
            34.93,
            28.38,
            30.43,
            30.74,
            30.68,
            29.41,
            29.82,
            29.17,
            27.51,
            26.66,
            27.62,
            28.73,
            29.11,
            27.44,
            28.77,
            28.13,
            28.4,
            28.2,
            29.44,
            27.37,
            29.91,
            29.29,
            27.85,
            31.0,
            28.04,
            27.73,
            29.14,
            29.57,
            26.31,
            27.02,
            29.25,
            26.52,
            26.32,
            28.41,
            26.78,
            25.82,
            26.28,
            27.02,
            27.03,
            28.77,
            29.56,
            42.56,
            34.33,
            30.23,
            49.54,
            34.9,
            35.53,
            32.9,
            35.52,
            35.17,
            37.35,
            32.13,
            41.89,
            45.65,
            38.94,
            29.92,
            27.71,
            27.32,
            29.16,
            27.22,
            26.7,
            24.92,
            22.74,
            24.67,
            23.85,
            24.56,
            24.68,
            23.95,
            22.29,
            22.46,
            30.62,
            25.05,
            25.77,
            26.47,
            27.0,
            36.12,
            22.86,
            22.59,
            23.44,
            23.36,
            24.43,
            25.21,
            23.9,
            24.07,
            25.8,
            22.51,
            22.24,
            26.65,
            22.53,
            23.56,
            23.33,
            26.49,
            31.58,
            44.68,
            42.21,
            48.69,
            33.6,
            50.71,
            35.14,
            24.09,
            23.61,
            36.9,
            31.14,
            26.09,
            25.87,
            26.24,
            44.12,
            68.17,
            38.64,
            29.61,
            51.07,
            36.82,
            38.67,
            33.15,
            22.44,
            22.09,
            28.79,
            22.3,
            31.21,
            35.36,
            40.7,
            23.0,
            31.83,
            32.63,
            36.07,
            22.83,
            30.96,
            23.3,
            18.43,
            22.04,
            27.56,
            19.81,
            19.78,
            18.1,
            19.19,
            19.66,
            21.27,
            20.57,
            21.2,
            21.45,
            20.13,
            21.37,
            20.09,
            18.82,
            27.16,
            19.13,
            19.81,
            20.41,
            19.73,
            29.27,
            51.81,
            51.04,
            51.14,
            22.48,
            22.04,
            25.65,
            20.99,
            33.43,
            31.39,
            20.08,
            22.4,
            21.45,
            21.41,
            20.54,
            23.86,
            18.71,
            17.34,
            18.73,
            19.41,
            24.06,
            19.91,
            33.15,
            19.48,
            23.86,
            26.28,
            33.57,
            26.23,
            28.95,
            19.85,
            18.52,
            21.21,
            17.32,
            20.93,
            19.28,
            20.71,
            32.88,
            22.88,
            17.18,
            25.12,
            17.95,
            20.95,
            17.84,
            15.74,
            17.31,
            16.66,
            16.35,
            16.94,
            15.95,
            15.19,
            17.65,
            16.13,
            15.68,
            17.75,
            20.01,
            17.78,
            16.04,
            14.82,
            20.21,
            16.54,
            16.47,
            15.8,
            14.84,
            15.02,
            34.72,
            28.3,
            27.89,
            16.92,
            17.2,
            21.63,
            23.19,
            24.64,
            16.52,
            18.0,
            16.19,
            15.86,
            18.16,
            19.13,
            22.17,
            18.57,
            33.24,
            40.89,
            19.73,
            18.17,
            16.93,
            26.01,
            28.69,
            19.01,
            20.12,
            35.98,
            23.46,
            19.27,
            26.73,
            28.71,
            21.95,
            20.62,
            25.78,
            20.17,
            30.07,
            19.35,
            21.81,
            32.6,
            28.34,
            41.78,
            30.4,
            22.38,
            16.81,
            15.93,
            44.18,
            42.52,
            30.36,
            23.72,
            27.76,
            29.61,
            15.44,
            21.13,
            15.04,
            23.69,
            23.03,
            15.03,
            16.84,
            30.57,
            34.67,
            23.62,
            20.08,
            16.22,
            20.02,
            35.31,
            22.7,
            21.01,
            31.29,
            19.91,
            18.2,
            23.97,
            19.5,
            31.09,
            46.27,
            27.12,
            21.89,
            15.66,
            26.22,
            39.58,
            35.33,
            27.48,
            19.98,
            25.44,
            40.02,
            23.43,
            25.82,
            21.71,
            17.52,
            30.64,
            33.08,
            32.91,
            29.76,
            37.65,
            33.82,
            26.12,
            26.21,
            22.18,
            19.12,
            18.1,
            24.92,
            28.27,
            16.9,
            19.72,
            26.84,
            22.82,
            18.94,
            19.04,
            26.56,
            52.53,
            32.59,
            30.4,
            23.87,
            26.05,
            16.97,
            18.96,
            21.86,
            16.82,
            30.81,
            29.49,
            15.02,
            13.03,
            18.65,
            15.67,
            17.56,
            15.51,
            25.15,
            24.48,
            18.57,
            19.81,
            19.6,
            16.87,
            11.92,
            15.63,
            13.41,
            25.08,
            25.82,
            48.59,
            27.71,
            30.83,
            28.11,
            21.22,
            51.79,
            56.93,
            31.8,
            42.52,
            19.86,
            36.68,
            36.83,
            37.44,
            22.81,
            22.94,
            41.75,
            30.51,
            29.53,
            28.2,
            37.89,
            31.01,
            30.52,
            20.61,
            20.62,
            17.98,
            15.53,
            29.41,
            22.11,
            14.34,
            27.74,
            29.17,
            27.01,
            41.21,
            46.23,
            26.13,
            37.13,
            37.18,
            21.02,
            12.99,
            18.63,
            20.71,
            17.78,
            18.45,
            17.38,
            22.36,
            20.85,
            13.99,
            14.08,
            17.31,
            18.77,
            10.17,
            9.28,
            13.01,
            17.78,
            16.78,
            17.85,
            20.64,
            21.9,
            24.78,
            30.37,
            29.02,
            27.97,
            19.35,
            21.47,
            17.96,
            18.49,
            20.11,
            20.82,
            30.8,
            21.17,
            19.57,
            29.96,
            12.64,
            21.55,
            24.92,
            20.88,
            14.06,
            16.26,
            20.11,
            32.51,
            30.01,
            22.59,
            20.94,
            14.11,
            19.38,
            16.6,
            13.25,
            16.46,
            24.48,
            22.96,
            28.62,
            28.21,
            34.09,
            29.22,
            18.76,
            12.74,
            17.6,
            20.49,
            23.33,
            18.83,
            20.96,
            23.79,
            20.59,
            14.26,
            10.22,
            20.29,
            31.79,
            34.3,
            20.09,
            21.41,
            23.85
          ]
        ]
      }
    },
    "003": {
      "common": {
        "heads": [
          "ERR-SYS",
          "EN-NRM",
          "MONIT",
          "MONIT-ERR"
        ],
        "units": [
          "PER-CENT",
          "EV",
          "B",
          "B"
        ],
        "data": [
          [
            4.1
          ],
          [
            0.0253
          ],
          [
            940.3
          ],
          [
            1.6
          ]
        ]
      },
      "data": {
        "heads": [
          "EN",
          "DATA",
          "ERR-T"
        ],
        "units": [
          "EV",
          "B",
          "PER-CENT"
        ],
        "data": [
          [
            35.0249,
            35.0749,
            35.1249,
            35.1749,
            35.2249,
            35.2749,
            35.3249,
            35.3749,
            35.4249,
            35.4749,
            35.5249,
            35.5749,
            35.6249,
            35.6749,
            35.7249,
            35.7749,
            35.8249,
            35.8749,
            35.9249,
            35.9749,
            36.0249,
            36.0749,
            36.1249,
            36.1749,
            36.2249,
            36.2749,
            36.3249,
            36.3749,
            36.4249,
            36.4749,
            36.5249,
            36.5749,
            36.6249,
            36.6749,
            36.7249,
            36.7749,
            36.8249,
            36.8749,
            36.925,
            36.975,
            37.025,
            37.075,
            37.125,
            37.175,
            37.225,
            37.275,
            37.325,
            37.375,
            37.425,
            37.475,
            37.525,
            37.575,
            37.625,
            37.675,
            37.725,
            37.775,
            37.825,
            37.875,
            37.925,
            37.975,
            38.025,
            38.075,
            38.125,
            38.175,
            38.225,
            38.275,
            38.325,
            38.375,
            38.425,
            38.475,
            38.525,
            38.575,
            38.625,
            38.675,
            38.725,
            38.775,
            38.825,
            38.875,
            38.925,
            38.975,
            39.025,
            39.075,
            39.125,
            39.175,
            39.225,
            39.275,
            39.325,
            39.375,
            39.425,
            39.475,
            39.525,
            39.575,
            39.625,
            39.675,
            39.725,
            39.775,
            39.825,
            39.875,
            39.925,
            39.975,
            40.025,
            40.075,
            40.125,
            40.175,
            40.225,
            40.275,
            40.325,
            40.375,
            40.425,
            40.475,
            40.525,
            40.575,
            40.625,
            40.675,
            40.725,
            40.775,
            40.825,
            40.875,
            40.925,
            40.975,
            41.025,
            41.075,
            41.125,
            41.175,
            41.225,
            41.275,
            41.325,
            41.375,
            41.425,
            41.475,
            41.525,
            41.575,
            41.625,
            41.675,
            41.725,
            41.775,
            41.825,
            41.875,
            41.925,
            41.975,
            42.025,
            42.075,
            42.125,
            42.175,
            42.225,
            42.275,
            42.325,
            42.375,
            42.425,
            42.475,
            42.525,
            42.575,
            42.625,
            42.675,
            42.725,
            42.775,
            42.825,
            42.875,
            42.925,
            42.975,
            43.025,
            43.075,
            43.125,
            43.175,
            43.225,
            43.275,
            43.325,
            43.375,
            43.425,
            43.475,
            43.525,
            43.575,
            43.625,
            43.675,
            43.725,
            43.775,
            43.825,
            43.875,
            43.925,
            43.975,
            44.025,
            44.075,
            44.125,
            44.175,
            44.225,
            44.275,
            44.325,
            44.375,
            44.425,
            44.475,
            44.525,
            44.575,
            44.625,
            44.675,
            44.725,
            44.775,
            44.825,
            44.875,
            44.925,
            44.975,
            45.025,
            45.075,
            45.125,
            45.175,
            45.225,
            45.275,
            45.325,
            45.375,
            45.425,
            45.475,
            45.525,
            45.575,
            45.625,
            45.675,
            45.725,
            45.775,
            45.825,
            45.875,
            45.925,
            45.975,
            46.025,
            46.075,
            46.125,
            46.175,
            46.225,
            46.275,
            46.325,
            46.375,
            46.425,
            46.475,
            46.525,
            46.575,
            46.625,
            46.675,
            46.725,
            46.775,
            46.825,
            46.875,
            46.925,
            46.975,
            47.025,
            47.075,
            47.125,
            47.175,
            47.225,
            47.275,
            47.325,
            47.375,
            47.425,
            47.475,
            47.525,
            47.575,
            47.625,
            47.675,
            47.725,
            47.775,
            47.825,
            47.875,
            47.925,
            47.975,
            48.025,
            48.075,
            48.125,
            48.175,
            48.225,
            48.275,
            48.325,
            48.375,
            48.425,
            48.475,
            48.525,
            48.575,
            48.625,
            48.675,
            48.725,
            48.775,
            48.825,
            48.875,
            48.925,
            48.975,
            49.025,
            49.075,
            49.125,
            49.175,
            49.225,
            49.275,
            49.325,
            49.375,
            49.425,
            49.475,
            49.525,
            49.575,
            49.625,
            49.675,
            49.725,
            49.775,
            49.825,
            49.875,
            49.925,
            49.975,
            49.9958,
            50.0414,
            50.0871,
            50.1328,
            50.1786,
            50.2245,
            50.2704,
            50.3164,
            50.3625,
            50.4086,
            50.4547,
            50.501,
            50.5473,
            50.5937,
            50.6401,
            50.6866,
            50.7332,
            50.7798,
            50.8265,
            50.8732,
            50.92,
            50.9669,
            51.0139,
            51.0609,
            51.108,
            51.1551,
            51.2023,
            51.2496,
            51.2969,
            51.3443,
            51.3918,
            51.4393,
            51.4869,
            51.5346,
            51.5823,
            51.6301,
            51.678,
            51.726,
            51.774,
            51.822,
            51.8702,
            51.9184,
            51.9666,
            52.015,
            52.0634,
            52.1118,
            52.1604,
            52.209,
            52.2577,
            52.3064,
            52.3552,
            52.4041,
            52.4531,
            52.5021,
            52.5512,
            52.6003,
            52.6495,
            52.6988,
            52.7482,
            52.7976,
            52.8471,
            52.8967,
            52.9463,
            52.9961,
            53.0458,
            53.0957,
            53.1456,
            53.1956,
            53.2457,
            53.2958,
            53.346,
            53.3963,
            53.4466,
            53.4971,
            53.5475,
            53.5981,
            53.6487,
            53.6994,
            53.7502,
            53.8011,
            53.852,
            53.903,
            53.954,
            54.0052,
            54.0564,
            54.1077,
            54.159,
            54.2105,
            54.262,
            54.3135,
            54.3652,
            54.4169,
            54.4687,
            54.5206,
            54.5725,
            54.6246,
            54.6767,
            54.7288,
            54.7811,
            54.8334,
            54.8858,
            54.9383,
            54.9908,
            55.0434,
            55.0961,
            55.1489,
            55.2017,
            55.2547,
            55.3077,
            55.3607,
            55.4139,
            55.4671,
            55.5204,
            55.5738,
            55.6273,
            55.6808,
            55.7344,
            55.7881,
            55.8419,
            55.8957,
            55.9497,
            56.0037,
            56.0577,
            56.1119,
            56.1661,
            56.2205,
            56.2749,
            56.3293,
            56.3839,
            56.4385,
            56.4932,
            56.548,
            56.6029,
            56.6579,
            56.7129,
            56.768,
            56.8232,
            56.8785,
            56.9338,
            56.9893,
            57.0448,
            57.1004,
            57.1561,
            57.2118,
            57.2677,
            57.3236,
            57.3796,
            57.4357,
            57.4919,
            57.5481,
            57.6044,
            57.6609,
            57.7174,
            57.7739,
            57.8306,
            57.8874,
            57.9442,
            58.0011,
            58.0581,
            58.1152,
            58.1724,
            58.2296,
            58.287,
            58.3444,
            58.4019,
            58.4595,
            58.5172,
            58.575,
            58.6328,
            58.6908,
            58.7488,
            58.8069,
            58.8651,
            58.9234,
            58.9817,
            59.0402,
            59.0987,
            59.1574,
            59.2161,
            59.2749,
            59.3338,
            59.3928,
            59.4518,
            59.511,
            59.5702,
            59.6296,
            59.689,
            59.7485,
            59.8081,
            59.8678,
            59.9276,
            59.9875,
            60.0474,
            60.1075,
            60.1676,
            60.2278,
            60.2881,
            60.3486,
            60.4091,
            60.4697,
            60.5303,
            60.5911,
            60.652,
            60.7129,
            60.774,
            60.8351,
            60.8964,
            60.9577,
            61.0191,
            61.0806,
            61.1422,
            61.2039,
            61.2657,
            61.3276,
            61.3896,
            61.4517,
            61.5138,
            61.5761,
            61.6385,
            61.7009,
            61.7635,
            61.8261,
            61.8888,
            61.9517,
            62.0146,
            62.0776,
            62.1407,
            62.204,
            62.2673,
            62.3307,
            62.3942,
            62.4578,
            62.5215,
            62.5853,
            62.6492,
            62.7132,
            62.7773,
            62.8415,
            62.9058,
            62.9702,
            63.0347,
            63.0993,
            63.1639,
            63.2287,
            63.2936,
            63.3586,
            63.4237,
            63.4889,
            63.5542,
            63.6196,
            63.685,
            63.7506,
            63.8163,
            63.8821,
            63.948,
            64.014,
            64.0801,
            64.1463,
            64.2126,
            64.279,
            64.3455,
            64.4122,
            64.4789,
            64.5457,
            64.6126,
            64.6797,
            64.7468,
            64.814,
            64.8814,
            64.9488,
            65.0164,
            65.084,
            65.1518,
            65.2197,
            65.2877,
            65.3558,
            65.4239,
            65.4922,
            65.5606,
            65.6292,
            65.6978,
            65.7665,
            65.8353,
            65.9043,
            65.9733,
            66.0425,
            66.1118,
            66.1812,
            66.2506,
            66.3202,
            66.3899,
            66.4598,
            66.5297,
            66.5997,
            66.6699,
            66.7401,
            66.8105,
            66.881,
            66.9516,
            67.0223,
            67.0931,
            67.164,
            67.2351,
            67.3062,
            67.3775,
            67.4489,
            67.5204,
            67.592,
            67.6637,
            67.7356,
            67.8075,
            67.8796,
            67.9518,
            68.0241,
            68.0965,
            68.169,
            68.2416,
            68.3144,
            68.3873,
            68.4603,
            68.5334,
            68.6066,
            68.68,
            68.7534,
            68.827,
            68.9007,
            68.9745,
            69.0485,
            69.1225,
            69.1967,
            69.271,
            69.3454,
            69.4199,
            69.4946,
            69.5694,
            69.6443,
            69.7193,
            69.7944,
            69.8697,
            69.9451,
            70.0206,
            70.0962,
            70.1719,
            70.2478,
            70.3238,
            70.3999,
            70.4762,
            70.5525,
            70.629,
            70.7056,
            70.7824,
            70.8592,
            70.9362,
            71.0133,
            71.0906,
            71.1679,
            71.2454,
            71.3231,
            71.4008,
            71.4787,
            71.5567,
            71.6348,
            71.7131,
            71.7915,
            71.87,
            71.9486,
            72.0274,
            72.1063,
            72.1853,
            72.2645,
            72.3438,
            72.4232,
            72.5028,
            72.5825,
            72.6623,
            72.7422,
            72.8223,
            72.9025,
            72.9829,
            73.0633,
            73.1439,
            73.2247,
            73.3056,
            73.3866,
            73.4677,
            73.549,
            73.6304,
            73.712,
            73.7937,
            73.8755,
            73.9575,
            74.0396,
            74.1218,
            74.2042,
            74.2867,
            74.3693,
            74.4521,
            74.535,
            74.6181,
            74.7013,
            74.7846,
            74.8681,
            74.9517,
            75.0355,
            75.1194,
            75.2034,
            75.2876,
            75.372,
            75.4564,
            75.541,
            75.6258,
            75.7107,
            75.7957,
            75.8809,
            75.9662,
            76.0517,
            76.1373,
            76.223,
            76.3089,
            76.395,
            76.4812,
            76.5675,
            76.654,
            76.7406,
            76.8274,
            76.9143,
            77.0014,
            77.0886,
            77.176,
            77.2635,
            77.3512,
            77.439,
            77.527,
            77.6151,
            77.7034,
            77.7918,
            77.8804,
            77.9691,
            78.0579,
            78.147,
            78.2361,
            78.3255,
            78.415,
            78.5046,
            78.5944,
            78.6843,
            78.7744,
            78.8647,
            78.9551,
            79.0457,
            79.1364,
            79.2273,
            79.3183,
            79.4095,
            79.5008,
            79.5923,
            79.684,
            79.7758,
            79.8678,
            79.9599,
            80.0522,
            80.1447,
            80.2373,
            80.3301,
            80.423,
            80.5161,
            80.6094,
            80.7028,
            80.7964,
            80.8902,
            80.9841,
            81.0782,
            81.1724,
            81.2668,
            81.3614,
            81.4561,
            81.551,
            81.6461,
            81.7414,
            81.8368,
            81.9323,
            82.0281,
            82.124,
            82.2201,
            82.3163,
            82.4127,
            82.5093,
            82.606,
            82.703,
            82.8001,
            82.8973,
            82.9948,
            83.0924,
            83.1902,
            83.2881,
            83.3862,
            83.4845,
            83.583,
            83.6817,
            83.7805,
            83.8795,
            83.9787,
            84.078,
            84.1775,
            84.2772,
            84.3771,
            84.4772,
            84.5774,
            84.6778,
            84.7784,
            84.8792,
            84.9801,
            85.0813,
            85.1826,
            85.2841,
            85.3858,
            85.4876,
            85.5897,
            85.6919,
            85.7943,
            85.8969,
            85.9997,
            86.1026,
            86.2058,
            86.3091,
            86.4126,
            86.5163,
            86.6202,
            86.7243,
            86.8286,
            86.933,
            87.0377,
            87.1425,
            87.2475,
            87.3527,
            87.4581,
            87.5637,
            87.6695,
            87.7755,
            87.8817,
            87.988,
            88.0946,
            88.2013,
            88.3083,
            88.4154,
            88.5227,
            88.6303,
            88.738,
            88.8459,
            88.954,
            89.0624,
            89.1709,
            89.2796,
            89.3885,
            89.4976,
            89.6069,
            89.7164,
            89.8261,
            89.936,
            90.0462,
            90.1565,
            90.267,
            90.3777,
            90.4886,
            90.5998,
            90.7111,
            90.8227,
            90.9344,
            91.0464,
            91.1585,
            91.2709,
            91.3835,
            91.4963,
            91.6093,
            91.7225,
            91.8359,
            91.9495,
            92.0633,
            92.1774,
            92.2916,
            92.4061,
            92.5208,
            92.6357,
            92.7508,
            92.8662,
            92.9817,
            93.0975,
            93.2134,
            93.3296,
            93.446,
            93.5627,
            93.6795,
            93.7966,
            93.9139,
            94.0314,
            94.1491,
            94.267,
            94.3852,
            94.5036,
            94.6222,
            94.7411,
            94.8601,
            94.9794,
            95.0989,
            95.2187,
            95.3386,
            95.4588,
            95.5792,
            95.6999,
            95.8208,
            95.9419,
            96.0632,
            96.1848,
            96.3066,
            96.4286,
            96.5509,
            96.6734,
            96.7961,
            96.919,
            97.0422,
            97.1657,
            97.2893,
            97.4132,
            97.5374,
            97.6617,
            97.7864,
            97.9112,
            98.0363,
            98.1616,
            98.2872,
            98.413,
            98.5391,
            98.6654,
            98.7919,
            98.9187,
            99.0457,
            99.173,
            99.3005,
            99.4283,
            99.5563,
            99.6846,
            99.8131,
            99.9418,
            100.071,
            100.2,
            100.33,
            100.459,
            100.589,
            100.72,
            100.85,
            100.981,
            101.112,
            101.243,
            101.375,
            101.507,
            101.639,
            101.771,
            101.903,
            102.036,
            102.169,
            102.303,
            102.436,
            102.57,
            102.704,
            102.839,
            102.973,
            103.108,
            103.244,
            103.379,
            103.515,
            103.651,
            103.787,
            103.923,
            104.06,
            104.197,
            104.335,
            104.472,
            104.61,
            104.748,
            104.887,
            105.025,
            105.164,
            105.304,
            105.443,
            105.583,
            105.723,
            105.864,
            106.004,
            106.145,
            106.286,
            106.428,
            106.57,
            106.712,
            106.854,
            106.997,
            107.14,
            107.283,
            107.426,
            107.57,
            107.714,
            107.858,
            108.003,
            108.148,
            108.293,
            108.439,
            108.585,
            108.731,
            108.877,
            109.024,
            109.171,
            109.318,
            109.466,
            109.614,
            109.762,
            109.91,
            110.059,
            110.208,
            110.358,
            110.507,
            110.657,
            110.808,
            110.958,
            111.109,
            111.26,
            111.412,
            111.564,
            111.716,
            111.868,
            112.021,
            112.174,
            112.328,
            112.481,
            112.636,
            112.79,
            112.945,
            113.1,
            113.255,
            113.411,
            113.567,
            113.723,
            113.879,
            114.036,
            114.194,
            114.351,
            114.509,
            114.667,
            114.826,
            114.985,
            115.144,
            115.304,
            115.463,
            115.624,
            115.784,
            115.945,
            116.106,
            116.268,
            116.43,
            116.592,
            116.755,
            116.918,
            117.081,
            117.244,
            117.408,
            117.573,
            117.737,
            117.902,
            118.068,
            118.233,
            118.399,
            118.566,
            118.732,
            118.9,
            119.067,
            119.235,
            119.403,
            119.571,
            119.74,
            119.909,
            120.079,
            120.249,
            120.419,
            120.59,
            120.761,
            120.932,
            121.104,
            121.276,
            121.449,
            121.621,
            121.795,
            121.968,
            122.142,
            122.317,
            122.491,
            122.666,
            122.842,
            123.018,
            123.194,
            123.37,
            123.547,
            123.725,
            123.903,
            124.081,
            124.259,
            124.438,
            124.617,
            124.797,
            124.977,
            125.157,
            125.338,
            125.52,
            125.701,
            125.883,
            126.066,
            126.248,
            126.432,
            126.615,
            126.799,
            126.984,
            127.168,
            127.354,
            127.539,
            127.725,
            127.912,
            128.098,
            128.286,
            128.473,
            128.661,
            128.85,
            129.039,
            129.228,
            129.418,
            129.608,
            129.799,
            129.99,
            130.181,
            130.373,
            130.565,
            130.758,
            130.951,
            131.144,
            131.338,
            131.533,
            131.728,
            131.923,
            132.119,
            132.315,
            132.511,
            132.708,
            132.906,
            133.104,
            133.302,
            133.501,
            133.7,
            133.9,
            134.1,
            134.3,
            134.501,
            134.703,
            134.905,
            135.107,
            135.31,
            135.513,
            135.717,
            135.921,
            136.126,
            136.331,
            136.537,
            136.743,
            136.949,
            137.156,
            137.364,
            137.572,
            137.78,
            137.989,
            138.198,
            138.408,
            138.618,
            138.829,
            139.041,
            139.252,
            139.465,
            139.677,
            139.89,
            140.104,
            140.318,
            140.533,
            140.748,
            140.964,
            141.18,
            141.397,
            141.614,
            141.832,
            142.05,
            142.268,
            142.488,
            142.707,
            142.928,
            143.148,
            143.369,
            143.591,
            143.813,
            144.036,
            144.26,
            144.483,
            144.708,
            144.933,
            145.158,
            145.384,
            145.61,
            145.837,
            146.065,
            146.293,
            146.521,
            146.75,
            146.98,
            147.21,
            147.441,
            147.672,
            147.904,
            148.136,
            148.369,
            148.603,
            148.837,
            149.071,
            149.306,
            149.542,
            149.778,
            150.015,
            150.252,
            150.49,
            150.729,
            150.968,
            151.207,
            151.447,
            151.688,
            151.929,
            152.171,
            152.414,
            152.657,
            152.901,
            153.145,
            153.39,
            153.635,
            153.881,
            154.128,
            154.375,
            154.622,
            154.871,
            155.12,
            155.369,
            155.62,
            155.87,
            156.122,
            156.374,
            156.626,
            156.879,
            157.133,
            157.388,
            157.643,
            157.898,
            158.155,
            158.412,
            158.669,
            158.927,
            159.186,
            159.446,
            159.706,
            159.967,
            160.228,
            160.49,
            160.753,
            161.016,
            161.28,
            161.544,
            161.81,
            162.075,
            162.342,
            162.609,
            162.877,
            163.146,
            163.415,
            163.685,
            163.955,
            164.226,
            164.498,
            164.771,
            165.044,
            165.318,
            165.593,
            165.868,
            166.144,
            166.421,
            166.698,
            166.976,
            167.255,
            167.534,
            167.814,
            168.095,
            168.377,
            168.659,
            168.942,
            169.226,
            169.51,
            169.795,
            170.081,
            170.367,
            170.655,
            170.943,
            171.231,
            171.521,
            171.811,
            172.102,
            172.394,
            172.686,
            172.979,
            173.273,
            173.568,
            173.863,
            174.159,
            174.456,
            174.754,
            175.053,
            175.352,
            175.652,
            175.953,
            176.254,
            176.556,
            176.859,
            177.163,
            177.468,
            177.773,
            178.08,
            178.387,
            178.694,
            179.003,
            179.312,
            179.623,
            179.934,
            180.246,
            180.558,
            180.872,
            181.186,
            181.501,
            181.817,
            182.134,
            182.451,
            182.77,
            183.089,
            183.409,
            183.73,
            184.052,
            184.374,
            184.698,
            185.022,
            185.347,
            185.673,
            186.0,
            186.328,
            186.656,
            186.986,
            187.316,
            187.647,
            187.98,
            188.313,
            188.646,
            188.981,
            189.317,
            189.653,
            189.991,
            190.329,
            190.669,
            191.009,
            191.35,
            191.692,
            192.035,
            192.379,
            192.723,
            193.069,
            193.416,
            193.763,
            194.112,
            194.461,
            194.811,
            195.163,
            195.515,
            195.868,
            196.222,
            196.578,
            196.934,
            197.291,
            197.649,
            198.008,
            198.368,
            198.729,
            199.091,
            199.454,
            199.818,
            200.084,
            200.45,
            200.817,
            201.184,
            201.553,
            201.923,
            202.294,
            202.665,
            203.038,
            203.412,
            203.787,
            204.163,
            204.54,
            204.918,
            205.297,
            205.677,
            206.058,
            206.44,
            206.823,
            207.208,
            207.593,
            207.98,
            208.367,
            208.756,
            209.146,
            209.536,
            209.928,
            210.321,
            210.716,
            211.111,
            211.507,
            211.905,
            212.303,
            212.703,
            213.104,
            213.506,
            213.909,
            214.313,
            214.719,
            215.125,
            215.533,
            215.942,
            216.352,
            216.763,
            217.175,
            217.589,
            218.004,
            218.42,
            218.837,
            219.255,
            219.675,
            220.095,
            220.517,
            220.941,
            221.365,
            221.791,
            222.217,
            222.645,
            223.075,
            223.505,
            223.937,
            224.37,
            224.804,
            225.24,
            225.677,
            226.115,
            226.554,
            226.995,
            227.437,
            227.88,
            228.325,
            228.771,
            229.218,
            229.666,
            230.116,
            230.567,
            231.02,
            231.473,
            231.929,
            232.385,
            232.843,
            233.302,
            233.762,
            234.224,
            234.688,
            235.152,
            235.618,
            236.086,
            236.554,
            237.025,
            237.496,
            237.969,
            238.444,
            238.919,
            239.397,
            239.875,
            240.356,
            240.837,
            241.32,
            241.805,
            242.291,
            242.778,
            243.267,
            243.757,
            244.249,
            244.742,
            245.237,
            245.734,
            246.231,
            246.731,
            247.232,
            247.734,
            248.238,
            248.743,
            249.251,
            249.759,
            250.269,
            250.781,
            251.294,
            251.809,
            252.325,
            252.844,
            253.363,
            253.884,
            254.407,
            254.932,
            255.458,
            255.985,
            256.515,
            257.046,
            257.578,
            258.113,
            258.649,
            259.186,
            259.726,
            260.267,
            260.809,
            261.354,
            261.9,
            262.448,
            262.997,
            263.548,
            264.101,
            264.656,
            265.213,
            265.771,
            266.331,
            266.893,
            267.456,
            268.022,
            268.589,
            269.158,
            269.728,
            270.301,
            270.875,
            271.452,
            272.03,
            272.61,
            273.191,
            273.775,
            274.36,
            274.948,
            275.537,
            276.128,
            276.721,
            277.316,
            277.913,
            278.512,
            279.113,
            279.716,
            280.32,
            280.927,
            281.536,
            282.146,
            282.759,
            283.373,
            283.99,
            284.609,
            285.229,
            285.852,
            286.477,
            287.103,
            287.732,
            288.363,
            288.996,
            289.631,
            290.268,
            290.908,
            291.549,
            292.192,
            292.838,
            293.486,
            294.136,
            294.788,
            295.442,
            296.099,
            296.757,
            297.418,
            298.081,
            298.746,
            299.414,
            300.084,
            300.756,
            301.43,
            302.106,
            302.785,
            303.466,
            304.15,
            304.835,
            305.523,
            306.214,
            306.906,
            307.601,
            308.299,
            308.999,
            309.701,
            310.405,
            311.112,
            311.822,
            312.533,
            313.248,
            313.964,
            314.684,
            315.405,
            316.129,
            316.856,
            317.585,
            318.317,
            319.051,
            319.788,
            320.527,
            321.269,
            322.013,
            322.76,
            323.51,
            324.262,
            325.017,
            325.775,
            326.535,
            327.298,
            328.063,
            328.831,
            329.602,
            330.376,
            331.152,
            331.931,
            332.713,
            333.498,
            334.285,
            335.075,
            335.868,
            336.664,
            337.463,
            338.264,
            339.068,
            339.876,
            340.686,
            341.499,
            342.315,
            343.134,
            343.955,
            344.78,
            345.608,
            346.438,
            347.272,
            348.109,
            348.949,
            349.791,
            350.637,
            351.486,
            352.338,
            353.193,
            354.051,
            354.913,
            355.777,
            356.645,
            357.516,
            358.39,
            359.267,
            360.147,
            361.031,
            361.918,
            362.808,
            363.702,
            364.599,
            365.499,
            366.402,
            367.309,
            368.219,
            369.133,
            370.05,
            370.97,
            371.894,
            372.822,
            373.752,
            374.687,
            375.625,
            376.566,
            377.511,
            378.459,
            379.411,
            380.367,
            381.326,
            382.289,
            383.255,
            384.225,
            385.199,
            386.177,
            387.158,
            388.143,
            389.132,
            390.125,
            391.121,
            392.121,
            393.125,
            394.133,
            395.145,
            396.161,
            397.18,
            398.204,
            399.232,
            400.263,
            401.299,
            402.338,
            403.382,
            404.429,
            405.481,
            406.537,
            407.597,
            408.661,
            409.729,
            410.802,
            411.879,
            412.96,
            414.045,
            415.134,
            416.228,
            417.326,
            418.429,
            419.536,
            420.647,
            421.763,
            422.883,
            424.007,
            425.136,
            426.27,
            427.408,
            428.551,
            429.698,
            430.85,
            432.007,
            433.168,
            434.334,
            435.505,
            436.68,
            437.86,
            439.045,
            440.235,
            441.429,
            442.629,
            443.833,
            445.042,
            446.257,
            447.476,
            448.7,
            449.929,
            451.164,
            452.403,
            453.648,
            454.897,
            456.152,
            457.412,
            458.677,
            459.948,
            461.224,
            462.505,
            463.791,
            465.083,
            466.38,
            467.683,
            468.991,
            470.305,
            471.624,
            472.948,
            474.279,
            475.615,
            476.956,
            478.304,
            479.657,
            481.015,
            482.38,
            483.75,
            485.126,
            486.508,
            487.896,
            489.29,
            490.69,
            492.096,
            493.508,
            494.926,
            496.35,
            497.781,
            499.217,
            500.66,
            502.109,
            503.564,
            505.026,
            506.494,
            507.969,
            509.45,
            510.937,
            512.431,
            513.931,
            515.438,
            516.952,
            518.473,
            520.0,
            521.534,
            523.074,
            524.622,
            526.176,
            527.737,
            529.306,
            530.881,
            532.463,
            534.053,
            535.649,
            537.253,
            538.864,
            540.482,
            542.108,
            543.74,
            545.381,
            547.028,
            548.683,
            550.346,
            552.016,
            553.694,
            555.38,
            557.073,
            558.774,
            560.482,
            562.199,
            563.924,
            565.656,
            567.396,
            569.145,
            570.902,
            572.666,
            574.439,
            576.22,
            578.01,
            579.808,
            581.614,
            583.429,
            585.252,
            587.084,
            588.924,
            590.773,
            592.631,
            594.497,
            596.373,
            598.257,
            600.15,
            602.053,
            603.964,
            605.884,
            607.814,
            609.753,
            611.701,
            613.658,
            615.625,
            617.601,
            619.587,
            621.583,
            623.588,
            625.603,
            627.627,
            629.662,
            631.706,
            633.76,
            635.825,
            637.899,
            639.984,
            642.079,
            644.184,
            646.3,
            648.426,
            650.562,
            652.709,
            654.867,
            657.036,
            659.215,
            661.405,
            663.606,
            665.818,
            668.041,
            670.276,
            672.521,
            674.778,
            677.046,
            679.326,
            681.617,
            683.92,
            686.234,
            688.561,
            690.899,
            693.249,
            695.611,
            697.985,
            700.371,
            702.77,
            705.181,
            707.604,
            710.04,
            712.489,
            714.95,
            717.424,
            719.911,
            722.411,
            724.923,
            727.449,
            729.989,
            732.541,
            735.107,
            737.687,
            740.28,
            742.886,
            745.507,
            748.141,
            750.79,
            753.452,
            756.129,
            758.82,
            761.525,
            764.245,
            766.98,
            769.729,
            772.493,
            775.272,
            778.066,
            780.875,
            783.699,
            786.539,
            789.394,
            792.264,
            795.151,
            798.053,
            800.971,
            803.905,
            806.856,
            809.822,
            812.805,
            815.805,
            818.821,
            821.854,
            824.903,
            827.97,
            831.054,
            834.155,
            837.274,
            840.41,
            843.563,
            846.735,
            849.924,
            853.132,
            856.358,
            859.602,
            862.864,
            866.145,
            869.445,
            872.764,
            876.102,
            879.459,
            882.835,
            886.231,
            889.646,
            893.082,
            896.537,
            900.012,
            903.507,
            907.023,
            910.56,
            914.117,
            917.695,
            921.294,
            924.915,
            928.556,
            932.22,
            935.905,
            939.612,
            943.341,
            947.092,
            950.865,
            954.662,
            958.481,
            962.323,
            966.188,
            970.076,
            973.988,
            977.924,
            981.884,
            985.867,
            989.875,
            993.908,
            997.965
          ],
          [
            41.245,
            42.041,
            38.504,
            39.204,
            47.607,
            44.875,
            40.371,
            35.626,
            35.34,
            38.827,
            38.711,
            37.423,
            43.886,
            39.358,
            29.832,
            32.751,
            38.886,
            34.712,
            36.18,
            43.262,
            38.596,
            36.498,
            36.735,
            39.058,
            41.906,
            48.897,
            43.602,
            44.059,
            46.815,
            44.847,
            53.2,
            50.593,
            44.011,
            31.116,
            26.023,
            27.181,
            24.759,
            22.95,
            22.455,
            22.961,
            22.519,
            26.543,
            25.321,
            24.548,
            28.464,
            28.473,
            27.292,
            29.802,
            33.498,
            33.969,
            33.622,
            28.005,
            21.135,
            21.302,
            22.704,
            18.827,
            16.927,
            15.789,
            16.345,
            14.876,
            13.908,
            12.519,
            12.133,
            10.799,
            13.238,
            14.076,
            13.72,
            14.074,
            15.299,
            14.533,
            15.772,
            16.552,
            17.359,
            18.794,
            19.039,
            21.622,
            24.249,
            20.227,
            20.432,
            25.857,
            27.597,
            27.427,
            28.382,
            29.727,
            30.034,
            33.889,
            38.408,
            35.791,
            35.631,
            32.173,
            32.085,
            31.628,
            26.617,
            25.322,
            27.911,
            27.378,
            32.73,
            31.271,
            29.311,
            31.872,
            34.725,
            36.324,
            38.77,
            36.042,
            29.813,
            27.39,
            26.809,
            32.252,
            36.284,
            37.345,
            36.771,
            33.771,
            32.858,
            29.04,
            27.218,
            26.519,
            24.204,
            26.273,
            31.089,
            27.875,
            25.38,
            25.95,
            21.547,
            20.977,
            20.745,
            17.632,
            15.173,
            14.022,
            14.905,
            16.334,
            17.07,
            15.341,
            14.256,
            16.153,
            17.672,
            19.522,
            19.997,
            19.427,
            17.687,
            17.154,
            18.024,
            18.623,
            21.633,
            25.381,
            25.857,
            23.602,
            24.066,
            23.495,
            29.099,
            40.959,
            45.163,
            40.191,
            40.071,
            38.142,
            36.152,
            31.662,
            26.495,
            22.6,
            19.169,
            17.283,
            14.174,
            12.526,
            14.162,
            15.12,
            18.125,
            20.172,
            18.524,
            17.894,
            20.097,
            21.443,
            20.823,
            19.019,
            17.064,
            16.156,
            14.868,
            13.33,
            9.8393,
            9.0318,
            10.504,
            13.161,
            13.707,
            11.239,
            12.081,
            12.507,
            12.572,
            13.394,
            14.559,
            16.252,
            15.693,
            13.662,
            12.449,
            12.864,
            12.457,
            11.463,
            10.344,
            10.13,
            9.3148,
            8.4191,
            8.8242,
            8.3066,
            7.7833,
            8.5007,
            8.2552,
            7.1176,
            6.8651,
            7.1166,
            7.3127,
            7.1366,
            7.3912,
            7.5981,
            8.7366,
            10.717,
            11.506,
            11.041,
            11.689,
            12.716,
            13.308,
            17.018,
            21.402,
            22.325,
            25.423,
            29.059,
            28.296,
            27.155,
            26.354,
            21.426,
            17.195,
            17.016,
            17.214,
            16.476,
            15.802,
            16.173,
            15.861,
            13.929,
            19.797,
            16.126,
            20.093,
            22.772,
            23.47,
            25.852,
            30.047,
            33.361,
            33.781,
            34.713,
            34.714,
            33.19,
            31.513,
            30.217,
            25.819,
            21.143,
            19.209,
            18.432,
            18.021,
            16.152,
            13.314,
            12.66,
            13.611,
            13.52,
            13.645,
            14.125,
            14.991,
            18.104,
            20.874,
            20.127,
            23.391,
            29.264,
            35.633,
            41.19,
            47.119,
            61.748,
            86.517,
            111.05,
            121.44,
            119.24,
            108.74,
            94.532,
            77.345,
            59.151,
            47.097,
            38.876,
            32.98,
            29.624,
            27.104,
            25.538,
            24.595,
            22.443,
            18.777,
            16.08,
            14.899,
            13.833,
            12.417,
            11.793,
            12.421,
            11.763,
            10.422,
            10.675,
            11.952,
            13.265,
            14.018,
            15.37,
            16.206,
            17.502,
            16.417,
            14.797,
            15.918,
            18.406,
            19.263,
            19.462,
            19.708,
            19.507,
            20.357,
            20.658,
            19.611,
            20.456,
            20.158,
            19.121,
            17.651,
            16.8,
            17.211,
            17.168,
            16.421,
            17.019,
            18.179,
            17.113,
            14.77,
            13.583,
            12.051,
            11.031,
            10.936,
            10.898,
            9.8498,
            8.7763,
            7.7742,
            7.2812,
            7.1059,
            7.4094,
            7.9992,
            7.5566,
            7.2205,
            7.586,
            8.5003,
            9.7017,
            9.6014,
            8.8436,
            9.338,
            10.66,
            11.109,
            10.936,
            11.729,
            10.995,
            10.364,
            10.418,
            10.845,
            12.658,
            14.855,
            16.54,
            18.885,
            22.206,
            25.17,
            28.694,
            33.588,
            39.225,
            44.799,
            48.857,
            50.605,
            50.466,
            47.917,
            46.553,
            48.388,
            48.726,
            45.933,
            43.315,
            39.9,
            37.943,
            36.346,
            36.259,
            38.008,
            43.302,
            47.358,
            51.714,
            57.75,
            63.376,
            67.361,
            70.278,
            71.835,
            71.81,
            68.557,
            62.243,
            57.218,
            55.884,
            54.604,
            56.015,
            55.27,
            57.549,
            64.735,
            74.039,
            80.387,
            82.935,
            83.338,
            80.695,
            74.355,
            66.492,
            57.48,
            50.834,
            47.001,
            44.486,
            43.915,
            44.751,
            44.822,
            45.029,
            46.272,
            50.202,
            56.386,
            64.154,
            70.432,
            73.714,
            77.607,
            83.049,
            88.636,
            91.62,
            94.95,
            100.24,
            101.61,
            101.04,
            104.14,
            108.56,
            112.97,
            113.92,
            109.91,
            104.3,
            97.239,
            89.672,
            83.28,
            76.965,
            72.106,
            69.532,
            69.295,
            69.357,
            70.587,
            69.638,
            70.255,
            72.507,
            76.324,
            80.151,
            85.06,
            92.512,
            91.115,
            91.647,
            90.781,
            89.163,
            84.39,
            82.016,
            78.044,
            70.832,
            67.348,
            63.976,
            60.299,
            57.935,
            56.647,
            54.827,
            56.376,
            58.814,
            62.118,
            63.431,
            65.435,
            65.021,
            62.585,
            58.164,
            49.269,
            41.339,
            36.011,
            29.907,
            25.447,
            22.173,
            19.01,
            16.963,
            15.743,
            15.709,
            14.679,
            13.569,
            12.059,
            10.901,
            10.714,
            10.986,
            10.193,
            9.8318,
            10.356,
            11.207,
            11.157,
            11.875,
            12.391,
            13.954,
            14.893,
            15.323,
            15.257,
            14.858,
            15.529,
            16.371,
            17.475,
            19.333,
            20.842,
            22.205,
            25.739,
            29.692,
            33.212,
            36.762,
            40.979,
            45.721,
            52.462,
            58.957,
            64.866,
            70.566,
            72.953,
            75.292,
            73.965,
            68.908,
            60.102,
            49.439,
            39.229,
            31.365,
            25.963,
            21.397,
            18.84,
            16.113,
            14.08,
            14.546,
            16.441,
            21.367,
            30.762,
            43.037,
            58.714,
            73.015,
            80.126,
            78.986,
            67.139,
            53.867,
            40.592,
            28.451,
            21.078,
            17.642,
            15.169,
            14.503,
            14.122,
            15.466,
            15.755,
            15.69,
            17.713,
            19.453,
            21.098,
            25.572,
            30.151,
            34.389,
            40.116,
            43.919,
            47.548,
            50.6,
            55.064,
            61.354,
            65.388,
            72.15,
            78.77,
            79.601,
            71.206,
            60.452,
            49.606,
            40.711,
            34.886,
            33.725,
            35.426,
            37.222,
            38.737,
            38.611,
            35.789,
            32.434,
            29.211,
            26.456,
            24.309,
            22.942,
            22.248,
            21.171,
            18.371,
            16.802,
            16.002,
            15.271,
            15.197,
            14.622,
            14.491,
            16.108,
            16.753,
            18.033,
            19.439,
            20.951,
            22.201,
            21.869,
            21.934,
            20.25,
            19.432,
            20.241,
            19.517,
            18.556,
            17.485,
            17.32,
            16.311,
            15.728,
            16.11,
            17.409,
            18.263,
            19.449,
            22.617,
            25.615,
            26.704,
            27.114,
            27.67,
            27.147,
            24.64,
            22.874,
            21.121,
            20.873,
            21.745,
            23.058,
            24.12,
            26.491,
            29.283,
            33.272,
            37.703,
            42.342,
            45.085,
            46.181,
            48.009,
            48.837,
            48.476,
            47.461,
            46.665,
            45.883,
            46.195,
            46.269,
            48.79,
            52.725,
            58.115,
            62.177,
            65.347,
            66.304,
            63.638,
            59.365,
            51.888,
            43.344,
            34.928,
            28.512,
            22.107,
            18.355,
            15.95,
            14.509,
            13.509,
            12.901,
            12.405,
            12.562,
            13.018,
            14.037,
            15.696,
            17.783,
            20.065,
            21.264,
            22.147,
            22.425,
            21.521,
            20.944,
            20.406,
            20.48,
            20.693,
            20.627,
            20.507,
            19.935,
            19.137,
            18.494,
            18.402,
            19.677,
            21.571,
            24.496,
            29.827,
            40.201,
            58.605,
            76.934,
            95.365,
            104.39,
            106.49,
            105.67,
            106.41,
            111.18,
            120.4,
            130.08,
            134.35,
            130.4,
            117.18,
            100.42,
            84.497,
            69.339,
            57.0,
            49.498,
            46.349,
            47.874,
            51.186,
            56.929,
            62.5,
            67.864,
            78.34,
            95.565,
            110.5,
            119.27,
            121.1,
            110.57,
            93.232,
            71.44,
            49.385,
            34.22,
            26.505,
            22.602,
            20.241,
            18.732,
            18.718,
            19.079,
            19.553,
            19.948,
            19.38,
            18.596,
            18.292,
            18.463,
            18.113,
            17.838,
            17.755,
            18.467,
            19.746,
            21.343,
            23.494,
            27.329,
            33.53,
            40.67,
            47.155,
            53.079,
            58.72,
            61.243,
            60.844,
            56.873,
            51.207,
            45.322,
            39.289,
            35.724,
            35.37,
            33.028,
            32.825,
            33.3,
            35.395,
            38.631,
            43.831,
            50.911,
            58.157,
            63.28,
            65.549,
            63.602,
            57.934,
            48.801,
            39.791,
            31.581,
            26.365,
            22.612,
            19.655,
            17.777,
            17.503,
            16.115,
            16.148,
            16.506,
            17.893,
            20.155,
            22.244,
            24.289,
            26.826,
            29.381,
            30.356,
            30.837,
            31.741,
            34.065,
            38.299,
            42.217,
            46.645,
            52.881,
            61.15,
            70.214,
            78.135,
            85.281,
            88.053,
            76.597,
            58.023,
            42.065,
            24.343,
            14.055,
            10.705,
            8.6465,
            7.3344,
            6.5755,
            6.2072,
            6.0473,
            6.0446,
            6.3176,
            6.8941,
            7.885,
            9.4632,
            11.532,
            13.42,
            15.112,
            17.075,
            20.204,
            24.378,
            27.434,
            28.49,
            27.506,
            25.088,
            21.896,
            18.043,
            14.927,
            12.908,
            11.225,
            9.5644,
            7.9707,
            6.7139,
            5.8623,
            5.5804,
            5.7237,
            6.0369,
            7.2982,
            9.23,
            11.162,
            12.648,
            13.139,
            11.568,
            9.3126,
            7.4045,
            6.2357,
            5.6707,
            5.6782,
            6.3524,
            7.4743,
            9.1985,
            11.827,
            15.291,
            21.49,
            31.523,
            43.273,
            53.041,
            57.837,
            55.635,
            47.547,
            38.957,
            32.176,
            28.335,
            27.911,
            29.358,
            31.479,
            36.195,
            44.463,
            59.436,
            88.263,
            129.76,
            167.66,
            189.16,
            185.04,
            152.64,
            107.48,
            69.729,
            45.613,
            33.151,
            26.578,
            22.561,
            20.587,
            19.477,
            18.846,
            18.637,
            19.008,
            20.036,
            21.622,
            24.265,
            27.459,
            30.285,
            31.252,
            30.495,
            29.168,
            26.805,
            25.914,
            25.486,
            27.829,
            32.938,
            40.024,
            44.615,
            42.958,
            35.275,
            25.047,
            16.037,
            10.709,
            8.9359,
            9.5866,
            12.341,
            17.214,
            24.663,
            35.191,
            45.455,
            48.0,
            42.842,
            35.189,
            29.14,
            26.093,
            25.676,
            26.955,
            28.888,
            30.173,
            30.707,
            30.952,
            30.904,
            30.208,
            30.063,
            31.196,
            34.388,
            40.543,
            52.62,
            68.338,
            87.764,
            110.29,
            122.94,
            115.6,
            96.819,
            78.635,
            67.154,
            63.473,
            62.752,
            59.322,
            53.057,
            47.736,
            44.754,
            44.287,
            45.745,
            47.953,
            50.303,
            53.119,
            55.322,
            53.98,
            47.665,
            39.288,
            31.274,
            23.337,
            17.153,
            13.537,
            11.292,
            9.8263,
            8.8921,
            8.1919,
            7.5845,
            7.1714,
            6.8485,
            6.5641,
            6.6208,
            7.2313,
            8.8411,
            11.498,
            15.217,
            20.606,
            27.399,
            31.447,
            28.841,
            21.66,
            14.327,
            9.3077,
            6.3597,
            5.0139,
            5.3204,
            6.8761,
            9.6034,
            13.063,
            17.142,
            21.788,
            26.344,
            29.704,
            30.064,
            28.108,
            25.716,
            25.167,
            29.001,
            38.827,
            55.395,
            71.557,
            81.05,
            86.213,
            88.89,
            92.97,
            93.967,
            93.654,
            88.801,
            77.525,
            62.709,
            50.779,
            44.525,
            43.365,
            44.382,
            45.751,
            44.51,
            41.744,
            38.528,
            36.019,
            35.936,
            40.078,
            48.875,
            61.018,
            72.181,
            76.607,
            72.014,
            61.753,
            54.421,
            56.667,
            44.482,
            46.069,
            55.097,
            68.078,
            90.078,
            90.617,
            81.519,
            65.375,
            49.843,
            37.744,
            29.44,
            25.874,
            25.673,
            27.33,
            31.219,
            35.335,
            38.534,
            41.022,
            43.232,
            45.214,
            47.924,
            51.95,
            55.7,
            58.557,
            61.927,
            65.449,
            68.103,
            70.081,
            69.869,
            64.032,
            52.618,
            38.202,
            25.404,
            17.41,
            13.88,
            13.482,
            14.155,
            14.224,
            13.308,
            12.339,
            12.129,
            13.144,
            15.112,
            18.068,
            23.03,
            31.739,
            45.446,
            65.639,
            89.961,
            106.37,
            103.66,
            83.737,
            59.995,
            41.641,
            29.475,
            24.355,
            25.162,
            30.055,
            35.579,
            37.828,
            35.756,
            31.764,
            28.876,
            27.349,
            25.01,
            24.496,
            25.42,
            27.364,
            29.665,
            30.696,
            29.928,
            28.285,
            26.63,
            27.03,
            28.353,
            28.571,
            27.443,
            27.061,
            27.01,
            26.761,
            27.192,
            29.481,
            35.034,
            44.325,
            57.685,
            71.401,
            77.949,
            71.215,
            56.015,
            41.551,
            30.096,
            24.023,
            22.116,
            22.255,
            22.885,
            23.967,
            25.064,
            24.907,
            21.856,
            16.787,
            12.35,
            10.572,
            11.187,
            12.881,
            14.994,
            16.847,
            18.545,
            19.985,
            20.607,
            19.796,
            17.562,
            14.977,
            12.833,
            10.975,
            9.2711,
            8.1252,
            7.8438,
            8.0273,
            8.9744,
            9.9531,
            10.305,
            9.955,
            9.2715,
            8.9159,
            9.0924,
            9.8059,
            11.211,
            13.839,
            17.543,
            22.351,
            28.779,
            36.729,
            46.57,
            57.855,
            65.642,
            67.903,
            64.56,
            54.72,
            45.158,
            38.983,
            35.089,
            33.275,
            35.621,
            42.044,
            50.748,
            56.214,
            52.431,
            41.306,
            30.38,
            22.371,
            17.592,
            14.878,
            12.662,
            10.312,
            8.0792,
            6.4112,
            5.1042,
            4.3173,
            3.954,
            4.1816,
            4.9659,
            6.2217,
            7.8895,
            9.5856,
            11.177,
            12.702,
            13.758,
            14.894,
            16.811,
            19.303,
            22.174,
            24.608,
            26.521,
            28.833,
            32.221,
            35.826,
            37.588,
            36.973,
            35.794,
            36.39,
            37.761,
            34.887,
            26.361,
            17.981,
            13.705,
            12.824,
            13.223,
            15.225,
            18.707,
            24.421,
            32.874,
            42.221,
            45.851,
            38.75,
            28.264,
            18.355,
            13.217,
            11.414,
            11.718,
            12.746,
            13.744,
            14.481,
            16.328,
            19.009,
            22.359,
            27.897,
            34.218,
            39.812,
            43.133,
            41.702,
            37.311,
            31.97,
            27.248,
            24.978,
            25.33,
            27.882,
            32.562,
            37.431,
            40.575,
            40.393,
            35.962,
            29.932,
            23.617,
            19.463,
            17.182,
            15.029,
            15.116,
            15.349,
            14.238,
            11.848,
            10.4,
            10.302,
            11.737,
            14.33,
            18.121,
            20.197,
            19.116,
            18.509,
            19.9,
            21.523,
            20.499,
            15.875,
            10.786,
            6.4932,
            5.4727,
            5.5553,
            5.722,
            5.6709,
            5.6391,
            5.6047,
            5.5572,
            5.7329,
            6.7057,
            8.8815,
            12.48,
            17.192,
            23.045,
            29.662,
            35.55,
            39.165,
            39.149,
            36.352,
            32.404,
            28.465,
            25.43,
            24.219,
            23.945,
            27.344,
            34.167,
            43.321,
            52.351,
            58.379,
            56.237,
            47.063,
            35.666,
            26.296,
            22.597,
            24.119,
            29.397,
            35.437,
            38.831,
            39.364,
            38.309,
            36.452,
            37.048,
            34.819,
            30.179,
            25.646,
            21.724,
            18.632,
            17.617,
            19.639,
            21.85,
            21.34,
            18.223,
            14.635,
            12.403,
            11.729,
            12.685,
            14.566,
            16.965,
            19.778,
            23.158,
            26.999,
            30.735,
            33.192,
            32.858,
            28.775,
            23.178,
            17.974,
            13.791,
            11.345,
            10.997,
            11.428,
            12.484,
            13.61,
            13.836,
            12.789,
            11.078,
            9.117,
            7.2924,
            5.8854,
            5.152,
            5.2812,
            6.0714,
            6.9188,
            7.3444,
            7.3319,
            7.3979,
            8.7044,
            11.046,
            12.559,
            12.461,
            12.38,
            11.979,
            13.261,
            14.836,
            15.903,
            15.886,
            15.856,
            15.866,
            16.147,
            17.615,
            21.43,
            26.338,
            32.18,
            35.221,
            36.698,
            37.078,
            40.931,
            46.434,
            49.342,
            50.283,
            48.007,
            46.181,
            45.429,
            41.704,
            36.24,
            31.381,
            28.623,
            28.345,
            25.109,
            22.821,
            20.385,
            18.332,
            17.089,
            17.446,
            19.336,
            22.096,
            26.145,
            29.772,
            32.664,
            35.591,
            39.089,
            39.458,
            37.935,
            32.1,
            26.929,
            25.029,
            24.661,
            22.759,
            23.519,
            24.099,
            23.95,
            24.171,
            26.585,
            29.858,
            30.684,
            24.066,
            18.142,
            15.332,
            16.691,
            22.085,
            26.236,
            28.306,
            32.45,
            36.524,
            38.844,
            41.525,
            40.497,
            40.387,
            42.847,
            46.596,
            50.182,
            48.848,
            42.261,
            33.885,
            26.612,
            23.299,
            22.371,
            21.052,
            19.228,
            16.885,
            15.682,
            17.148,
            19.395,
            20.452,
            19.683,
            18.845,
            20.141,
            22.424,
            25.344,
            29.172,
            35.764,
            44.966,
            54.738,
            59.791,
            62.328,
            61.634,
            53.117,
            46.199,
            40.023,
            32.816,
            26.319,
            22.016,
            21.203,
            20.95,
            28.036,
            38.35,
            47.796,
            46.6,
            33.829,
            23.465,
            12.81,
            8.0492,
            6.4621,
            6.0112,
            6.0437,
            6.4502,
            6.9244,
            7.7587,
            10.095,
            13.43,
            16.78,
            18.402,
            19.807,
            18.815,
            17.7,
            17.165,
            17.692,
            21.735,
            30.3,
            37.996,
            35.052,
            30.367,
            28.109,
            27.431,
            29.115,
            31.194,
            32.623,
            30.855,
            24.313,
            18.017,
            15.608,
            15.632,
            17.023,
            19.147,
            21.288,
            21.322,
            22.756,
            25.213,
            26.648,
            25.749,
            22.472,
            21.964,
            18.169,
            14.92,
            13.669,
            12.547,
            14.572,
            19.891,
            26.568,
            31.811,
            31.366,
            31.447,
            36.853,
            43.554,
            47.376,
            49.596,
            53.7,
            54.774,
            48.683,
            39.638,
            31.488,
            27.506,
            24.871,
            22.409,
            17.143,
            15.066,
            13.671,
            11.617,
            10.322,
            8.8914,
            7.8283,
            7.3551,
            7.6127,
            8.2056,
            9.346,
            11.61,
            14.699,
            16.773,
            16.79,
            15.942,
            15.06,
            14.521,
            14.379,
            14.497,
            13.573,
            14.073,
            16.026,
            16.556,
            15.03,
            13.545,
            11.159,
            9.7633,
            10.935,
            12.069,
            14.638,
            19.199,
            26.531,
            29.901,
            33.076,
            34.301,
            34.84,
            35.41,
            33.614,
            31.037,
            29.627,
            27.245,
            25.454,
            24.799,
            25.451,
            25.509,
            23.789,
            23.251,
            24.284,
            25.725,
            25.774,
            23.11,
            20.448,
            18.635,
            17.783,
            18.154,
            17.74,
            20.374,
            19.306,
            15.894,
            13.939,
            12.487,
            13.867,
            17.519,
            21.613,
            28.557,
            36.638,
            38.618,
            39.993,
            44.782,
            52.467,
            65.183,
            67.713,
            59.77,
            49.038,
            33.641,
            21.847,
            20.232,
            18.052,
            14.121,
            10.448,
            7.8016,
            6.9254,
            6.5781,
            7.0582,
            7.9088,
            8.3,
            8.8815,
            9.7019,
            11.652,
            13.967,
            15.8,
            17.491,
            19.94,
            22.852,
            24.165,
            22.884,
            19.405,
            15.385,
            13.411,
            12.141,
            12.775,
            16.251,
            19.032,
            20.398,
            19.835,
            19.112,
            19.011,
            22.122,
            29.953,
            38.209,
            46.273,
            44.125,
            37.793,
            28.184,
            28.402,
            22.211,
            20.972,
            20.315,
            22.779,
            25.047,
            24.603,
            22.367,
            18.484,
            15.976,
            16.564,
            21.113,
            25.877,
            27.326,
            24.306,
            21.404,
            18.987,
            18.589,
            18.114,
            19.265,
            18.296,
            16.481,
            14.81,
            11.864,
            12.21,
            12.644,
            13.343,
            14.355,
            13.836,
            12.979,
            12.591,
            12.004,
            11.566,
            11.619,
            12.052,
            12.538,
            12.594,
            10.977,
            10.653,
            10.931,
            14.487,
            20.61,
            28.174,
            34.481,
            39.468,
            40.733,
            37.237,
            33.116,
            28.178,
            31.683,
            36.614,
            38.515,
            39.624,
            33.416,
            28.607,
            23.252,
            17.271,
            13.001,
            10.804,
            10.324,
            11.766,
            14.687,
            17.509,
            19.021,
            19.908,
            18.181,
            16.422,
            14.159,
            15.522,
            18.443,
            24.083,
            30.122,
            32.179,
            32.637,
            31.263,
            26.01,
            20.692,
            16.705,
            11.854,
            9.198,
            8.2202,
            8.1997,
            9.535,
            11.549,
            12.725,
            11.584,
            9.8247,
            8.392,
            7.3589,
            7.719,
            7.5155,
            7.4861,
            7.9205,
            10.036,
            12.198,
            13.676,
            14.048,
            12.218,
            10.055,
            9.7759,
            11.081,
            12.814,
            13.055,
            12.949,
            10.358,
            10.006,
            10.042,
            9.0284,
            7.3953,
            7.4316,
            7.9287,
            9.4422,
            11.968,
            14.771,
            14.924,
            12.435,
            10.263,
            8.9762,
            7.8968,
            9.0041,
            11.386,
            13.008,
            14.565,
            11.435,
            7.8862,
            6.6427,
            5.911,
            6.1514,
            7.3399,
            10.027,
            12.466,
            14.365,
            13.96,
            12.013,
            11.108,
            11.504,
            13.272,
            15.627,
            16.371,
            15.776,
            14.977,
            13.512,
            13.694,
            15.307,
            17.767,
            19.157,
            17.135,
            17.071,
            17.535,
            19.839,
            18.922,
            17.89,
            18.03,
            18.368,
            20.153,
            17.033,
            14.082,
            13.25,
            13.111,
            12.942,
            10.193,
            9.9134,
            11.11,
            14.565,
            17.781,
            15.548,
            15.556,
            15.215,
            12.668,
            12.433,
            13.349,
            13.746,
            15.527,
            15.768,
            17.474,
            20.164,
            18.697,
            16.644,
            13.889,
            13.948,
            15.036,
            16.54,
            17.09,
            15.931,
            14.934,
            15.703,
            16.434,
            15.086,
            12.835,
            11.509,
            11.63,
            13.714,
            19.311,
            19.367,
            15.019,
            11.172,
            9.55,
            9.2427,
            10.503,
            12.211,
            13.436,
            13.23,
            11.338,
            13.575,
            15.513,
            16.78,
            15.99,
            14.85,
            15.982,
            13.866,
            10.78,
            11.336,
            14.329,
            17.028,
            16.449,
            15.61,
            16.191,
            15.806,
            15.132,
            14.274,
            10.333,
            9.0903,
            9.4622,
            8.7849,
            8.7998,
            10.146,
            13.617,
            18.618,
            17.222,
            14.933,
            16.946,
            17.618,
            16.129,
            15.856,
            17.526,
            23.201,
            25.102,
            27.723,
            30.493,
            27.246,
            24.979,
            22.932,
            22.414,
            17.847,
            14.383,
            13.513,
            13.505,
            15.3,
            17.74,
            16.266,
            17.224,
            18.315,
            23.034,
            25.325,
            22.202,
            17.105,
            15.163,
            15.187,
            15.375,
            16.576,
            17.505,
            18.073,
            16.041,
            13.714,
            12.497,
            16.14,
            18.269,
            16.464,
            16.27,
            15.787,
            13.222,
            13.915,
            12.447,
            13.756,
            16.836,
            19.45,
            19.59,
            16.543,
            14.52,
            11.365,
            8.6434,
            8.2483,
            10.193,
            10.966,
            10.981,
            13.313,
            13.068,
            12.746,
            12.603,
            15.196,
            17.545,
            18.33,
            18.206,
            18.161,
            17.646,
            14.749,
            12.523,
            10.873,
            12.112,
            14.27,
            14.751,
            13.447,
            11.02,
            8.9337,
            8.7456,
            8.9321,
            9.2734,
            10.207,
            9.4009,
            11.759,
            15.153,
            16.04,
            14.44,
            15.64,
            17.446,
            17.49,
            17.043,
            16.634,
            19.146,
            18.844,
            14.478,
            12.726,
            12.176,
            12.181,
            14.237,
            17.605,
            16.719,
            16.431,
            17.178,
            18.488,
            20.174,
            18.941,
            16.462,
            13.912,
            13.404,
            13.195,
            11.998,
            10.692,
            10.713,
            12.162,
            14.778,
            14.152,
            11.884,
            11.77,
            13.337,
            17.861,
            17.953,
            14.871,
            11.143,
            8.6106,
            7.7997,
            8.3308,
            8.3461,
            8.1829,
            9.793,
            10.211,
            10.649,
            10.346,
            10.005,
            9.5445,
            8.3825,
            6.9276,
            7.2756,
            8.6389,
            10.605,
            11.886,
            16.086
          ],
          [
            14.29,
            11.0,
            14.5,
            15.84,
            14.02,
            12.99,
            15.79,
            23.19,
            22.05,
            13.46,
            14.16,
            24.8,
            19.63,
            23.46,
            44.42,
            34.78,
            23.05,
            32.13,
            27.4,
            18.37,
            21.64,
            29.73,
            30.32,
            27.5,
            32.66,
            23.62,
            23.71,
            21.0,
            20.51,
            28.76,
            15.74,
            16.46,
            16.15,
            35.67,
            46.7,
            34.96,
            33.15,
            34.88,
            39.57,
            38.64,
            44.16,
            32.88,
            35.16,
            37.1,
            28.98,
            31.66,
            35.78,
            24.53,
            21.37,
            12.91,
            15.15,
            16.94,
            30.24,
            27.65,
            17.36,
            19.69,
            20.97,
            20.68,
            22.04,
            31.75,
            35.43,
            43.7,
            45.97,
            49.36,
            27.25,
            22.55,
            29.07,
            33.44,
            35.77,
            32.91,
            31.68,
            38.9,
            38.4,
            34.32,
            34.58,
            27.63,
            32.5,
            57.77,
            64.46,
            44.27,
            34.29,
            24.55,
            26.24,
            26.25,
            23.84,
            22.7,
            14.84,
            15.34,
            17.21,
            25.26,
            31.87,
            26.1,
            37.47,
            44.84,
            38.4,
            35.24,
            26.05,
            29.67,
            29.11,
            22.52,
            16.55,
            21.4,
            21.76,
            20.18,
            27.83,
            32.16,
            30.22,
            23.04,
            14.11,
            14.66,
            13.99,
            15.78,
            18.07,
            22.72,
            26.76,
            22.89,
            31.21,
            32.02,
            20.91,
            23.89,
            19.71,
            17.82,
            23.35,
            20.17,
            15.91,
            20.59,
            19.91,
            29.31,
            28.54,
            23.01,
            17.38,
            26.56,
            32.7,
            25.99,
            24.8,
            21.09,
            19.18,
            20.26,
            27.93,
            34.5,
            33.67,
            32.37,
            23.97,
            16.58,
            19.44,
            26.74,
            32.62,
            37.29,
            31.43,
            21.23,
            19.97,
            22.04,
            18.32,
            16.94,
            13.23,
            19.17,
            24.83,
            24.32,
            20.26,
            18.32,
            25.91,
            41.03,
            34.83,
            24.84,
            21.45,
            28.05,
            29.56,
            35.94,
            31.7,
            22.54,
            25.26,
            26.17,
            29.37,
            24.53,
            26.38,
            26.22,
            38.09,
            38.75,
            22.64,
            16.85,
            12.3,
            16.43,
            20.3,
            23.76,
            21.92,
            18.3,
            17.65,
            10.74,
            11.63,
            22.23,
            27.66,
            21.24,
            20.58,
            21.09,
            30.22,
            33.44,
            34.02,
            35.54,
            28.36,
            28.77,
            28.88,
            18.42,
            23.17,
            32.48,
            34.37,
            32.94,
            37.94,
            45.06,
            39.1,
            31.91,
            29.55,
            22.15,
            16.17,
            12.36,
            9.63,
            20.3,
            26.33,
            19.8,
            16.85,
            18.84,
            18.17,
            15.61,
            13.47,
            14.33,
            15.36,
            17.09,
            18.92,
            13.85,
            13.89,
            17.14,
            17.99,
            18.55,
            18.27,
            25.38,
            24.97,
            26.28,
            22.22,
            20.28,
            19.26,
            20.65,
            19.68,
            15.49,
            13.62,
            11.16,
            10.78,
            18.05,
            17.51,
            10.5,
            10.81,
            19.33,
            23.67,
            20.46,
            13.3,
            15.79,
            28.88,
            33.38,
            23.84,
            21.6,
            19.51,
            17.32,
            19.27,
            17.99,
            13.87,
            18.99,
            17.89,
            15.86,
            14.44,
            13.14,
            17.63,
            20.43,
            17.21,
            13.26,
            11.66,
            10.76,
            8.7,
            8.04,
            10.03,
            10.5,
            15.9,
            19.19,
            16.0,
            17.33,
            16.65,
            17.52,
            16.12,
            15.79,
            17.56,
            17.87,
            20.67,
            22.83,
            21.89,
            19.27,
            18.25,
            19.63,
            26.43,
            31.54,
            28.52,
            28.99,
            26.58,
            20.35,
            18.56,
            17.9,
            22.64,
            27.25,
            20.65,
            15.49,
            17.84,
            19.24,
            17.09,
            14.94,
            12.92,
            14.06,
            16.49,
            11.99,
            12.33,
            14.0,
            16.56,
            19.19,
            16.76,
            13.94,
            13.58,
            10.77,
            7.68,
            6.75,
            12.12,
            18.2,
            23.52,
            20.55,
            13.12,
            9.63,
            10.67,
            14.94,
            17.75,
            21.12,
            25.0,
            24.57,
            19.9,
            25.18,
            30.96,
            27.31,
            22.34,
            20.28,
            27.36,
            31.33,
            23.98,
            16.48,
            16.25,
            16.89,
            13.48,
            15.61,
            17.99,
            17.48,
            16.96,
            11.2,
            7.46,
            8.4,
            12.75,
            13.04,
            13.21,
            15.51,
            15.12,
            15.43,
            13.48,
            10.89,
            9.43,
            10.7,
            13.09,
            15.04,
            14.6,
            12.97,
            13.04,
            14.47,
            13.3,
            10.89,
            10.37,
            9.87,
            9.12,
            7.63,
            7.76,
            8.59,
            10.43,
            11.99,
            13.04,
            12.65,
            10.31,
            6.94,
            8.63,
            10.43,
            13.09,
            11.76,
            11.63,
            10.72,
            11.47,
            14.36,
            12.6,
            8.84,
            8.65,
            9.97,
            11.73,
            11.42,
            8.44,
            6.14,
            6.02,
            7.99,
            10.44,
            12.85,
            14.17,
            13.66,
            12.82,
            14.57,
            15.31,
            13.9,
            11.31,
            8.75,
            8.28,
            8.44,
            9.48,
            10.48,
            10.48,
            9.32,
            9.24,
            9.01,
            9.07,
            9.93,
            11.0,
            10.36,
            9.11,
            8.23,
            6.71,
            6.25,
            6.65,
            7.22,
            7.83,
            8.38,
            8.35,
            7.87,
            8.33,
            9.28,
            10.32,
            11.23,
            11.27,
            10.82,
            11.01,
            10.79,
            9.08,
            8.6,
            9.24,
            10.3,
            9.82,
            9.3,
            8.47,
            8.39,
            8.62,
            8.54,
            8.65,
            9.36,
            8.85,
            7.37,
            7.89,
            7.13,
            8.33,
            8.78,
            7.07,
            5.54,
            7.11,
            10.24,
            11.5,
            9.81,
            8.74,
            9.05,
            8.21,
            10.26,
            9.68,
            9.29,
            14.53,
            17.19,
            15.52,
            13.02,
            13.09,
            13.02,
            12.71,
            13.22,
            9.46,
            7.34,
            11.61,
            13.32,
            14.75,
            17.98,
            22.72,
            20.27,
            16.13,
            12.85,
            12.28,
            11.87,
            14.55,
            15.15,
            14.71,
            15.97,
            16.13,
            15.08,
            13.21,
            15.42,
            16.46,
            17.48,
            16.39,
            14.91,
            14.65,
            13.74,
            9.03,
            7.3,
            6.55,
            5.77,
            6.38,
            8.02,
            7.73,
            9.05,
            11.09,
            10.99,
            11.14,
            11.44,
            11.36,
            12.91,
            12.43,
            11.11,
            12.54,
            12.73,
            11.54,
            8.74,
            8.23,
            8.81,
            6.97,
            6.27,
            5.9,
            6.03,
            7.18,
            9.17,
            12.49,
            15.54,
            12.62,
            12.86,
            13.19,
            13.1,
            13.34,
            11.37,
            9.9,
            11.44,
            10.75,
            12.19,
            14.23,
            12.92,
            8.68,
            7.97,
            9.55,
            11.01,
            9.6,
            9.59,
            8.87,
            7.89,
            7.7,
            7.04,
            5.78,
            5.13,
            6.16,
            9.29,
            15.7,
            15.0,
            13.44,
            10.1,
            7.35,
            7.16,
            6.73,
            6.04,
            6.11,
            7.08,
            9.04,
            12.02,
            11.25,
            8.78,
            7.04,
            9.2,
            10.32,
            11.59,
            10.0,
            10.78,
            9.95,
            10.05,
            11.14,
            8.18,
            8.68,
            9.08,
            8.26,
            7.19,
            8.55,
            9.11,
            9.53,
            10.69,
            9.24,
            7.07,
            7.54,
            8.87,
            10.88,
            11.79,
            12.07,
            11.08,
            8.41,
            7.61,
            8.47,
            9.15,
            7.78,
            8.23,
            6.99,
            7.68,
            9.27,
            11.04,
            12.08,
            10.72,
            10.22,
            10.05,
            10.58,
            11.3,
            9.59,
            7.01,
            7.59,
            8.33,
            7.12,
            5.61,
            5.08,
            5.28,
            6.93,
            7.48,
            7.63,
            7.61,
            7.28,
            6.43,
            5.15,
            5.36,
            5.84,
            6.27,
            7.24,
            7.22,
            6.31,
            6.5,
            6.31,
            5.66,
            6.73,
            8.55,
            9.8,
            10.15,
            12.64,
            11.56,
            11.94,
            12.53,
            12.65,
            11.11,
            11.03,
            11.16,
            10.78,
            9.92,
            8.97,
            6.98,
            6.09,
            5.17,
            5.2,
            5.32,
            6.29,
            7.61,
            8.38,
            8.4,
            8.41,
            8.15,
            8.62,
            8.63,
            9.54,
            8.7,
            6.72,
            6.02,
            6.39,
            7.49,
            9.19,
            8.85,
            8.5,
            9.04,
            6.67,
            5.57,
            5.88,
            5.46,
            6.54,
            8.78,
            7.92,
            5.3,
            4.98,
            4.9,
            5.19,
            5.93,
            6.16,
            7.05,
            6.7,
            5.18,
            5.91,
            5.61,
            5.9,
            5.91,
            5.79,
            6.24,
            5.94,
            5.17,
            5.18,
            5.63,
            6.04,
            6.83,
            7.22,
            8.19,
            10.27,
            10.38,
            8.77,
            7.28,
            6.73,
            8.4,
            8.5,
            7.57,
            6.81,
            6.37,
            7.11,
            8.2,
            8.1,
            8.49,
            8.42,
            8.14,
            8.97,
            10.5,
            11.14,
            9.97,
            8.96,
            8.16,
            6.44,
            4.98,
            4.6,
            5.54,
            5.91,
            6.68,
            6.14,
            6.25,
            6.97,
            7.11,
            6.9,
            7.32,
            8.14,
            6.45,
            5.84,
            5.7,
            5.71,
            5.61,
            6.18,
            5.54,
            6.12,
            7.21,
            7.6,
            8.15,
            8.12,
            7.63,
            7.27,
            8.2,
            7.95,
            7.19,
            6.83,
            7.81,
            8.2,
            8.7,
            8.46,
            8.63,
            8.41,
            7.75,
            7.24,
            7.18,
            6.8,
            6.76,
            7.35,
            7.42,
            7.12,
            7.17,
            7.32,
            7.97,
            8.27,
            8.07,
            6.85,
            5.76,
            6.88,
            7.6,
            6.54,
            6.88,
            17.75,
            46.24,
            37.37,
            15.59,
            10.95,
            9.08,
            12.6,
            12.59,
            11.84,
            9.98,
            9.08,
            7.76,
            6.4,
            6.18,
            7.39,
            8.37,
            7.45,
            6.87,
            7.02,
            7.11,
            6.06,
            5.42,
            5.5,
            6.68,
            7.44,
            7.86,
            9.59,
            11.18,
            11.41,
            10.22,
            8.88,
            9.18,
            10.76,
            11.41,
            9.69,
            8.74,
            10.19,
            8.52,
            6.84,
            5.37,
            5.88,
            9.15,
            12.49,
            12.01,
            9.87,
            10.6,
            12.28,
            11.08,
            7.85,
            7.64,
            11.05,
            13.09,
            10.02,
            7.76,
            6.72,
            5.88,
            5.37,
            5.25,
            6.58,
            7.73,
            9.65,
            9.69,
            7.29,
            5.77,
            5.2,
            5.68,
            5.96,
            5.88,
            5.73,
            8.13,
            5.88,
            5.05,
            4.99,
            5.72,
            9.05,
            17.12,
            21.31,
            20.14,
            17.67,
            11.73,
            7.48,
            7.83,
            7.7,
            7.7,
            7.61,
            6.43,
            6.61,
            6.83,
            7.16,
            6.89,
            6.54,
            7.13,
            9.06,
            11.31,
            8.44,
            11.04,
            5.28,
            4.73,
            5.17,
            4.82,
            5.06,
            6.49,
            9.66,
            19.95,
            23.72,
            15.5,
            8.08,
            9.99,
            11.18,
            10.17,
            8.03,
            7.23,
            5.57,
            5.57,
            6.15,
            9.78,
            10.09,
            8.56,
            8.46,
            8.06,
            6.87,
            6.55,
            7.51,
            8.84,
            9.45,
            7.73,
            7.67,
            7.65,
            7.79,
            6.17,
            6.76,
            6.37,
            6.65,
            5.95,
            5.37,
            5.5,
            9.02,
            12.01,
            9.48,
            5.81,
            5.47,
            5.72,
            6.09,
            6.97,
            7.65,
            8.48,
            7.84,
            7.32,
            7.43,
            6.84,
            6.15,
            6.18,
            5.78,
            8.84,
            12.06,
            14.65,
            16.57,
            14.98,
            11.87,
            9.75,
            7.39,
            7.85,
            7.18,
            5.95,
            5.53,
            6.23,
            7.53,
            9.46,
            9.8,
            10.84,
            13.96,
            14.88,
            9.8,
            6.06,
            6.39,
            13.75,
            18.0,
            16.06,
            16.78,
            11.94,
            11.14,
            10.15,
            8.53,
            9.59,
            11.52,
            10.65,
            8.85,
            8.14,
            8.11,
            7.45,
            6.9,
            7.84,
            8.35,
            7.14,
            5.71,
            5.1,
            6.31,
            6.32,
            6.22,
            5.58,
            5.38,
            6.19,
            6.81,
            7.33,
            9.43,
            11.51,
            9.02,
            6.24,
            6.61,
            6.52,
            6.63,
            6.05,
            5.54,
            6.04,
            6.77,
            6.03,
            5.8,
            6.45,
            6.62,
            5.97,
            5.25,
            7.28,
            10.16,
            7.4,
            10.61,
            7.5,
            8.32,
            8.44,
            6.93,
            5.34,
            6.4,
            10.99,
            17.01,
            18.19,
            14.05,
            8.09,
            10.52,
            6.57,
            6.46,
            6.88,
            6.99,
            6.68,
            5.8,
            5.61,
            5.59,
            5.22,
            5.19,
            5.8,
            6.16,
            5.76,
            5.64,
            5.19,
            5.42,
            6.41,
            10.39,
            18.52,
            25.96,
            23.27,
            11.8,
            7.09,
            5.47,
            5.19,
            5.46,
            5.97,
            6.69,
            7.4,
            8.47,
            8.3,
            6.93,
            6.34,
            6.68,
            7.58,
            6.45,
            5.29,
            5.9,
            10.47,
            20.55,
            26.12,
            21.85,
            11.08,
            6.64,
            5.55,
            5.3,
            5.9,
            7.08,
            8.01,
            9.5,
            11.56,
            5.83,
            5.98,
            6.29,
            6.21,
            5.96,
            5.62,
            5.12,
            4.98,
            5.73,
            6.9,
            6.68,
            6.33,
            6.88,
            7.85,
            5.64,
            6.35,
            7.57,
            8.29,
            7.82,
            8.32,
            8.41,
            7.41,
            6.97,
            6.51,
            10.2,
            14.48,
            13.63,
            8.84,
            7.69,
            7.94,
            6.21,
            6.33,
            6.64,
            6.9,
            7.25,
            10.5,
            15.06,
            9.61,
            7.82,
            6.74,
            6.07,
            6.49,
            6.74,
            6.79,
            6.98,
            7.03,
            7.26,
            7.68,
            8.31,
            8.04,
            7.46,
            10.29,
            12.4,
            9.0,
            6.93,
            6.7,
            7.74,
            9.48,
            11.15,
            12.22,
            10.09,
            11.3,
            10.0,
            7.67,
            7.92,
            8.66,
            9.61,
            10.64,
            10.33,
            7.78,
            7.09,
            7.1,
            7.06,
            7.78,
            8.96,
            8.27,
            6.43,
            7.35,
            9.11,
            8.83,
            7.33,
            6.68,
            6.59,
            8.47,
            13.21,
            11.96,
            8.7,
            7.63,
            7.39,
            8.11,
            10.89,
            11.86,
            12.27,
            11.69,
            12.52,
            13.58,
            12.73,
            10.68,
            8.5,
            8.66,
            9.0,
            8.2,
            7.74,
            7.66,
            8.01,
            8.4,
            7.83,
            7.28,
            7.32,
            7.21,
            6.89,
            6.68,
            6.95,
            7.37,
            7.46,
            7.41,
            6.48,
            6.0,
            10.36,
            17.08,
            11.97,
            9.42,
            9.32,
            7.34,
            7.4,
            8.08,
            6.74,
            6.33,
            9.85,
            11.97,
            16.98,
            22.29,
            12.21,
            9.84,
            10.78,
            9.71,
            8.72,
            8.99,
            10.06,
            10.9,
            10.9,
            8.19,
            6.25,
            6.3,
            6.47,
            6.55,
            7.17,
            7.53,
            7.73,
            7.21,
            7.59,
            8.1,
            7.97,
            7.11,
            6.12,
            5.06,
            5.13,
            7.81,
            10.7,
            10.18,
            14.54,
            7.02,
            7.53,
            7.12,
            7.36,
            7.87,
            8.71,
            11.92,
            14.81,
            12.26,
            8.91,
            7.11,
            6.59,
            6.66,
            6.42,
            6.64,
            9.83,
            18.64,
            29.31,
            21.53,
            12.29,
            6.22,
            8.14,
            9.49,
            10.0,
            10.04,
            10.46,
            9.56,
            9.74,
            7.87,
            7.55,
            7.63,
            8.47,
            6.81,
            5.27,
            6.12,
            6.27,
            6.06,
            6.22,
            7.78,
            8.58,
            12.37,
            7.81,
            9.32,
            11.03,
            12.66,
            11.28,
            6.45,
            5.02,
            7.17,
            11.34,
            10.59,
            7.79,
            8.75,
            8.58,
            7.53,
            7.81,
            7.65,
            8.27,
            6.39,
            6.14,
            8.22,
            7.09,
            5.89,
            7.37,
            13.11,
            8.74,
            8.05,
            7.39,
            7.93,
            8.07,
            10.41,
            9.22,
            9.85,
            9.41,
            8.8,
            8.42,
            6.96,
            6.02,
            7.13,
            6.8,
            6.54,
            5.92,
            5.75,
            8.5,
            10.42,
            9.52,
            7.16,
            8.1,
            7.98,
            7.25,
            6.61,
            6.97,
            6.52,
            7.24,
            7.46,
            9.6,
            9.14,
            9.5,
            11.0,
            10.89,
            10.24,
            8.76,
            8.91,
            9.99,
            11.44,
            11.34,
            10.26,
            6.98,
            6.54,
            8.81,
            8.73,
            6.83,
            6.78,
            7.15,
            7.32,
            6.82,
            6.52,
            6.13,
            6.76,
            7.27,
            6.15,
            6.97,
            6.97,
            7.02,
            6.21,
            6.19,
            6.61,
            6.07,
            6.31,
            6.27,
            6.87,
            7.13,
            7.46,
            8.09,
            6.97,
            5.46,
            7.91,
            7.9,
            8.17,
            7.17,
            7.08,
            6.97,
            6.65,
            7.8,
            8.49,
            8.54,
            8.48,
            7.56,
            5.61,
            6.28,
            5.77,
            6.82,
            8.69,
            5.56,
            6.03,
            7.45,
            5.34,
            5.28,
            4.87,
            6.05,
            5.75,
            7.18,
            7.68,
            10.03,
            11.45,
            6.9,
            9.94,
            9.62,
            7.19,
            6.33,
            6.27,
            7.26,
            6.23,
            5.52,
            6.47,
            6.62,
            6.38,
            7.93,
            7.47,
            6.38,
            6.79,
            8.5,
            8.64,
            6.32,
            6.09,
            5.87,
            5.29,
            6.28,
            8.05,
            9.54,
            8.5,
            8.06,
            7.27,
            8.34,
            10.02,
            10.22,
            8.33,
            8.81,
            7.88,
            6.29,
            8.7,
            7.72,
            7.84,
            4.77,
            6.68,
            6.21,
            6.34,
            9.15,
            9.66,
            9.06,
            9.14,
            7.63,
            6.92,
            5.93,
            6.91,
            9.4,
            17.43,
            22.16,
            18.19,
            13.07,
            8.08,
            10.35,
            10.35,
            8.96,
            8.01,
            7.83,
            6.93,
            12.33,
            11.53,
            8.03,
            7.39,
            7.98,
            7.51,
            6.65,
            7.12,
            7.21,
            7.01,
            8.78,
            8.89,
            8.34,
            5.07,
            5.81,
            7.07,
            7.61,
            5.95,
            5.03,
            8.86,
            11.09,
            6.88,
            6.93,
            8.1,
            9.14,
            9.43,
            7.34,
            8.63,
            7.58,
            7.16,
            7.39,
            7.97,
            6.07,
            5.91,
            7.59,
            12.23,
            9.46,
            10.91,
            10.1,
            10.71,
            8.88,
            6.99,
            8.67,
            11.34,
            9.57,
            7.57,
            7.7,
            9.52,
            6.28,
            6.22,
            8.1,
            9.23,
            7.0,
            6.1,
            12.1,
            8.8,
            7.5,
            7.72,
            8.8,
            8.59,
            8.98,
            8.39,
            10.77,
            11.91,
            15.38,
            17.57,
            13.16,
            9.76,
            8.95,
            7.23,
            7.68,
            7.97,
            6.68,
            7.58,
            8.05,
            8.98,
            12.61,
            7.05,
            8.89,
            7.79,
            6.78,
            9.26,
            10.26,
            11.23,
            12.21,
            15.62,
            13.82,
            9.09,
            6.92,
            8.4,
            9.07,
            9.68,
            6.59,
            5.61,
            5.76,
            5.21,
            6.08,
            7.15,
            9.14,
            8.64,
            7.42,
            9.13,
            8.29,
            9.36,
            8.89,
            5.54,
            6.59,
            7.28,
            9.38,
            6.66,
            8.38,
            8.66,
            6.54,
            6.34,
            9.74,
            6.72,
            9.27,
            12.2,
            10.9,
            10.45,
            9.04,
            6.15,
            6.98,
            6.11,
            7.09,
            7.26,
            7.76,
            7.09,
            6.63,
            7.97,
            12.93,
            7.48,
            8.2,
            7.5,
            9.58,
            14.57,
            14.63,
            8.37,
            14.29,
            13.09,
            9.46,
            11.08,
            11.32,
            11.14,
            9.56,
            11.01,
            9.53,
            8.79,
            8.01,
            9.01,
            8.35,
            7.61,
            7.31,
            10.93,
            9.07,
            8.36,
            7.35,
            7.65,
            6.9,
            7.09,
            9.29,
            10.49,
            10.52,
            13.28,
            15.37,
            14.4,
            5.67,
            5.84,
            8.44,
            16.05,
            16.86,
            6.4,
            9.29,
            6.58,
            8.75,
            9.48,
            8.04,
            7.14,
            10.7,
            9.43,
            14.65,
            14.1,
            8.51,
            6.63,
            7.36,
            10.73,
            6.93,
            7.38,
            10.06,
            8.1,
            6.99,
            6.29,
            13.92,
            9.93,
            10.13,
            14.26,
            9.49,
            8.32,
            9.34,
            10.02,
            8.79,
            8.23,
            11.63,
            12.21,
            13.45,
            10.52,
            10.21,
            13.18,
            10.61,
            10.89,
            13.83,
            13.42,
            12.87,
            10.62,
            6.88,
            5.03,
            7.4,
            8.69,
            9.53,
            13.03,
            9.11,
            7.26,
            7.46,
            9.28,
            11.64,
            10.29,
            16.77,
            15.84,
            13.74,
            12.57,
            12.52,
            13.31,
            9.14,
            7.83,
            7.28,
            9.21,
            7.14,
            7.23,
            9.99,
            15.03,
            14.13,
            9.57,
            9.41,
            9.32,
            6.32,
            9.9,
            14.96,
            10.1,
            18.51,
            17.95,
            11.77,
            13.05,
            11.31,
            12.24,
            13.24,
            9.43,
            9.7,
            10.77,
            11.17,
            8.61,
            8.91,
            13.31,
            15.11,
            13.56,
            10.86,
            12.68,
            7.34,
            7.61,
            12.77,
            11.8,
            9.97,
            6.99,
            7.41,
            7.61,
            11.93,
            11.37,
            10.82,
            10.61,
            12.62,
            16.08,
            15.8,
            19.04,
            12.86,
            9.69,
            6.41,
            10.44,
            11.93,
            16.45,
            11.07,
            9.15,
            10.07,
            11.91,
            11.85,
            11.57,
            11.88,
            11.43,
            12.88,
            12.33,
            16.8,
            16.01,
            9.67,
            9.19,
            9.32,
            10.49,
            11.01,
            12.14,
            10.47,
            10.08,
            9.02,
            8.72,
            9.72,
            9.78,
            10.54,
            9.03,
            8.03,
            7.09,
            8.0,
            8.73,
            9.35,
            6.21,
            6.43,
            7.6,
            9.33,
            9.37,
            9.71,
            11.85,
            16.25,
            10.09,
            9.18,
            7.85,
            13.61,
            14.74,
            15.64,
            10.18,
            10.26,
            8.2,
            9.62,
            10.07,
            11.59,
            13.14,
            13.89,
            9.89,
            7.98,
            6.81,
            7.26,
            6.99,
            6.83,
            9.44,
            12.46,
            12.7,
            11.82,
            13.08,
            13.28,
            12.28,
            10.88,
            10.38,
            10.63,
            8.01,
            10.41,
            10.14,
            11.29,
            12.83,
            10.44,
            7.95,
            16.41,
            23.73,
            11.51,
            13.51,
            14.22,
            12.44,
            10.88,
            8.22,
            11.5,
            14.78,
            12.8,
            8.17,
            7.25,
            9.58,
            10.52,
            10.89,
            17.61,
            17.58,
            12.62,
            9.01,
            6.69,
            8.25,
            8.72,
            8.61,
            10.45,
            10.37,
            12.65,
            9.1,
            9.68,
            9.63,
            14.49,
            19.16,
            15.48,
            9.04,
            9.55,
            12.71,
            8.91,
            7.85,
            9.67,
            11.18,
            12.16,
            14.62,
            9.97,
            12.74,
            8.37,
            8.67,
            10.61,
            11.01,
            9.91,
            11.81,
            19.83,
            9.63,
            8.76,
            14.03,
            7.43,
            9.43,
            10.37,
            10.88,
            13.77,
            10.14,
            11.7,
            15.61,
            11.74,
            8.06,
            10.45,
            13.59,
            13.08,
            9.36,
            8.66,
            10.68,
            11.5,
            15.35,
            10.68,
            9.83,
            11.3,
            11.87,
            10.9,
            10.58,
            10.96,
            11.33,
            11.44,
            11.68,
            11.48,
            9.37,
            7.91,
            11.01,
            8.85,
            13.6,
            14.04,
            10.03,
            14.81,
            8.31,
            7.21,
            7.52,
            8.15,
            8.97,
            9.67,
            9.51,
            8.07,
            8.26,
            7.95,
            8.79,
            7.9,
            9.18,
            11.53,
            13.27,
            11.96,
            9.87,
            9.67,
            11.42,
            8.9,
            7.69,
            8.78,
            8.36,
            10.24,
            15.98,
            12.85,
            9.75,
            7.38,
            9.15,
            10.77,
            9.31,
            8.54,
            8.68,
            9.09,
            11.48,
            13.85,
            7.69,
            7.71,
            9.33,
            13.76,
            7.68,
            7.12,
            8.32,
            11.34,
            8.25,
            8.36,
            12.03,
            9.01,
            9.76,
            7.38,
            7.38,
            7.36,
            7.55,
            9.42,
            12.59,
            8.65,
            7.77,
            11.33,
            10.22,
            8.87,
            7.64,
            6.95,
            9.6,
            13.42,
            9.77,
            7.91,
            11.66,
            13.2,
            15.26,
            11.23,
            8.77,
            9.62,
            8.76,
            10.24,
            8.34,
            8.26,
            11.65,
            10.46,
            10.18,
            8.04,
            16.94,
            7.86
          ]
        ]
      }
    },
    "004": {
      "common": null,
      "data": {
        "heads": [
          "EN",
          "DATA",
          "ERR-T",
          "ERR-SYS"
        ],
        "units": [
          "EV",
          "B",
          "PER-CENT",
          "PER-CENT"
        ],
        "data": [
          [
            1005.37,
            1009.5,
            1013.66,
            1017.83,
            1022.04,
            1026.27,
            1030.53,
            1034.81,
            1039.12,
            1043.46,
            1047.82,
            1052.22,
            1056.64,
            1061.08,
            1065.56,
            1070.06,
            1074.6,
            1079.16,
            1083.75,
            1088.37,
            1093.02,
            1097.7,
            1102.41,
            1107.15,
            1111.92,
            1116.72,
            1121.56,
            1126.42,
            1131.32,
            1136.24,
            1141.2,
            1146.2,
            1151.22,
            1156.28,
            1161.37,
            1166.5,
            1171.66,
            1176.86,
            1182.08,
            1187.35,
            1192.65,
            1197.98,
            1203.35,
            1208.76,
            1214.2,
            1219.68,
            1225.2,
            1230.76,
            1236.35,
            1241.98,
            1247.65,
            1253.36,
            1259.11,
            1264.89,
            1270.72,
            1276.59,
            1282.5,
            1288.45,
            1294.44,
            1300.47,
            1306.55,
            1312.66,
            1318.83,
            1325.03,
            1331.28,
            1337.57,
            1343.91,
            1350.29,
            1356.72,
            1363.19,
            1369.71,
            1376.28,
            1382.9,
            1389.56,
            1396.27,
            1403.03,
            1409.84,
            1416.7,
            1423.61,
            1430.57,
            1437.58,
            1444.64,
            1451.75,
            1458.92,
            1466.14,
            1473.42,
            1480.74,
            1488.13,
            1495.57,
            1503.06,
            1510.61,
            1518.22,
            1525.89,
            1533.61,
            1541.39,
            1549.24,
            1557.14,
            1565.1,
            1573.12,
            1581.21,
            1589.36,
            1597.57,
            1605.85,
            1614.19,
            1622.59,
            1631.06,
            1639.6,
            1648.2,
            1656.87,
            1665.62,
            1674.43,
            1683.31,
            1692.26,
            1701.28,
            1710.38,
            1719.55,
            1728.79,
            1738.1,
            1747.5,
            1756.97,
            1766.51,
            1776.14,
            1785.84,
            1795.62,
            1805.49,
            1815.43,
            1825.46,
            1835.57,
            1845.76,
            1856.04,
            1866.41,
            1876.86,
            1887.4,
            1898.04,
            1908.76,
            1919.57,
            1930.47,
            1941.47,
            1952.56,
            1963.75,
            1975.03,
            1986.41,
            1997.89,
            2009.47,
            2021.15,
            2032.93,
            2044.81,
            2056.8,
            2068.9,
            2081.1,
            2093.41,
            2105.83,
            2118.36,
            2131.01,
            2143.76,
            2156.64,
            2169.62,
            2182.73,
            2195.96,
            2209.3,
            2222.77,
            2236.36,
            2250.08,
            2263.92,
            2277.89,
            2291.99,
            2306.22,
            2320.59,
            2335.09,
            2349.72,
            2364.5,
            2379.41,
            2394.47,
            2409.67,
            2425.01,
            2440.5,
            2456.14,
            2471.93,
            2487.88,
            2503.97,
            2520.23,
            2536.64,
            2553.22,
            2569.96,
            2586.86,
            2603.93,
            2621.17,
            2638.58,
            2656.17,
            2673.93,
            2691.87,
            2709.99,
            2728.3,
            2746.79,
            2765.47,
            2784.34,
            2803.4,
            2822.67,
            2842.13,
            2861.79,
            2881.66,
            2901.74,
            2922.02,
            2942.52,
            2963.24,
            2984.17,
            3005.33,
            3026.72,
            3048.33,
            3070.17,
            3092.26,
            3114.58,
            3137.14,
            3159.95,
            3183.01,
            3206.32,
            3229.89,
            3253.72,
            3277.81,
            3302.18,
            3326.81,
            3351.72,
            3376.92,
            3402.4,
            3428.17,
            3454.23,
            3480.59,
            3507.25,
            3534.22,
            3561.51,
            3589.11,
            3617.03,
            3645.28,
            3673.86,
            3702.78,
            3732.04,
            3761.65,
            3791.62,
            3821.94,
            3852.63,
            3883.69,
            3915.13,
            3946.95,
            3979.16,
            4011.77,
            4044.78,
            4078.19,
            4112.03,
            4146.28,
            4180.97,
            4216.1,
            4251.66,
            4287.68,
            4324.16,
            4361.11,
            4398.53,
            4436.44,
            4474.84,
            4513.74,
            4553.15,
            4593.08,
            4633.53,
            4674.52,
            4716.06,
            4758.16,
            4800.82,
            4844.06,
            4887.88,
            4932.3,
            4962.46,
            4977.33,
            5053.98,
            5148.06,
            5244.8,
            5344.28,
            5446.62,
            5551.93,
            5660.33,
            5771.93,
            5886.86,
            6005.27,
            6127.28,
            6253.05,
            6382.73,
            6516.48,
            6654.49,
            6796.93,
            6943.99,
            7095.87,
            7252.79,
            7414.98,
            7582.67,
            7756.11,
            7935.58,
            8121.34,
            8313.71,
            8512.99,
            8719.52,
            8933.67,
            9155.8,
            9386.32,
            9625.66,
            9874.27,
            64071.6,
            65131.6,
            66218.2,
            67332.2,
            68474.5,
            69646.1,
            70848.1,
            72081.5,
            73347.3,
            74646.8,
            75981.2,
            77351.6,
            78759.5,
            80206.1,
            81693.0,
            83221.6,
            84793.6,
            86410.5,
            88074.1,
            89786.2,
            91548.7,
            93363.6,
            95233.0,
            97159.2,
            99144.4
          ],
          [
            10.313,
            7.811,
            8.5005,
            8.7475,
            8.5487,
            8.9584,
            8.438,
            7.3643,
            6.7107,
            7.5313,
            9.6743,
            9.8647,
            9.6158,
            9.4968,
            8.856,
            9.1841,
            11.05,
            11.21,
            9.652,
            8.9519,
            10.307,
            11.287,
            9.9406,
            9.0871,
            10.197,
            10.398,
            10.647,
            11.338,
            10.528,
            9.6778,
            10.794,
            10.982,
            9.9718,
            9.6023,
            10.852,
            12.137,
            11.308,
            11.167,
            11.011,
            10.462,
            10.826,
            9.5531,
            7.8421,
            8.0043,
            8.6481,
            10.175,
            11.195,
            11.228,
            11.03,
            9.4285,
            8.3226,
            8.1879,
            7.6445,
            6.4333,
            6.4776,
            7.1288,
            7.9639,
            9.2397,
            9.8673,
            11.626,
            12.311,
            10.87,
            11.038,
            12.152,
            11.977,
            11.333,
            13.216,
            15.324,
            13.992,
            11.115,
            8.7029,
            7.7831,
            8.5485,
            8.2145,
            7.5022,
            6.7212,
            6.8037,
            8.3487,
            9.4058,
            10.232,
            11.367,
            11.095,
            9.3836,
            8.6753,
            9.5394,
            10.82,
            10.539,
            8.1849,
            6.8786,
            7.3166,
            8.3808,
            10.019,
            10.979,
            10.804,
            9.8956,
            7.7629,
            6.9487,
            7.6261,
            8.7877,
            9.2034,
            8.4166,
            8.3397,
            8.121,
            7.7983,
            7.3958,
            6.97,
            6.7979,
            7.6546,
            8.3295,
            8.673,
            8.191,
            7.1669,
            7.28,
            7.7632,
            8.3345,
            10.549,
            11.461,
            10.13,
            8.0437,
            7.4822,
            7.0518,
            6.6083,
            7.3128,
            7.7515,
            7.8853,
            8.0341,
            8.4442,
            9.468,
            10.128,
            9.742,
            10.543,
            10.932,
            9.6084,
            7.6497,
            7.3742,
            8.341,
            8.196,
            7.5163,
            6.6629,
            5.8878,
            6.3784,
            7.1771,
            7.0363,
            7.0145,
            6.7003,
            6.7705,
            7.8532,
            8.3937,
            8.0578,
            6.8559,
            6.3252,
            6.1248,
            5.9627,
            6.1414,
            6.708,
            7.1804,
            7.6647,
            8.1101,
            8.0707,
            7.3242,
            7.0756,
            6.8006,
            6.3856,
            5.8696,
            5.6766,
            5.9042,
            6.4898,
            7.7544,
            7.7208,
            6.9127,
            7.301,
            7.3857,
            6.9164,
            7.6123,
            7.7615,
            7.6327,
            7.4884,
            7.6341,
            7.78,
            7.5725,
            7.1615,
            6.8173,
            6.537,
            6.5158,
            6.5217,
            6.9346,
            7.6713,
            7.5349,
            6.6209,
            5.9754,
            5.5555,
            5.8995,
            7.4854,
            6.9243,
            6.0589,
            6.0491,
            6.7571,
            7.0057,
            7.0287,
            6.5625,
            6.1518,
            6.0558,
            6.2921,
            5.9706,
            5.5719,
            5.5965,
            6.1727,
            6.6087,
            6.3784,
            5.7379,
            5.428,
            5.657,
            5.8807,
            6.3046,
            5.9535,
            5.5016,
            5.8277,
            5.856,
            5.5768,
            5.2629,
            4.8628,
            4.3957,
            4.1622,
            4.4227,
            4.9816,
            5.533,
            5.7424,
            5.636,
            5.3945,
            4.9577,
            4.709,
            4.8257,
            5.3912,
            5.678,
            5.6253,
            5.3869,
            5.1264,
            5.055,
            5.3505,
            5.432,
            5.2278,
            5.1692,
            5.5286,
            5.5617,
            5.368,
            5.3628,
            5.0731,
            4.7146,
            4.5688,
            4.6435,
            4.935,
            5.1462,
            5.1657,
            5.0414,
            4.7416,
            5.3043,
            5.6263,
            5.2758,
            4.8024,
            4.7346,
            4.6787,
            4.7518,
            5.1724,
            5.311,
            5.2436,
            5.4199,
            5.3402,
            4.9874,
            4.6412,
            4.5235,
            4.499,
            5.8198,
            5.4344,
            5.6973,
            6.1758,
            5.5147,
            4.8174,
            5.226,
            5.8385,
            5.2091,
            5.1459,
            5.8546,
            4.925,
            4.9294,
            5.2108,
            6.1843,
            4.8344,
            4.7589,
            5.2761,
            5.3642,
            4.7788,
            4.3306,
            5.0142,
            4.785,
            4.587,
            5.3625,
            5.4763,
            4.7853,
            4.8096,
            5.249,
            4.6883,
            4.8258,
            5.4774,
            2.4921,
            2.4702,
            2.5549,
            2.4747,
            2.3423,
            2.2669,
            2.3303,
            2.1566,
            2.247,
            2.3154,
            2.2209,
            2.453,
            2.8141,
            2.4433,
            2.3553,
            2.3331,
            2.325,
            2.3085,
            2.1192,
            2.2371,
            2.2705,
            2.2078,
            2.1722,
            2.2396,
            2.2265
          ],
          [
            13.36,
            8.84,
            7.15,
            6.73,
            10.28,
            14.72,
            13.56,
            12.5,
            16.01,
            19.79,
            8.37,
            6.71,
            6.83,
            8.3,
            13.05,
            17.8,
            14.84,
            11.92,
            11.15,
            12.08,
            11.26,
            7.63,
            9.08,
            16.54,
            12.61,
            12.07,
            10.56,
            7.1,
            7.39,
            6.83,
            8.12,
            7.47,
            8.95,
            11.03,
            10.67,
            9.27,
            12.97,
            12.76,
            9.34,
            9.42,
            7.09,
            9.31,
            9.93,
            14.98,
            13.37,
            10.28,
            10.38,
            9.34,
            9.32,
            8.45,
            8.57,
            10.68,
            11.69,
            12.26,
            15.81,
            15.71,
            14.38,
            14.27,
            15.16,
            14.67,
            11.38,
            11.9,
            11.65,
            10.69,
            8.59,
            9.61,
            7.98,
            7.48,
            7.44,
            9.09,
            8.37,
            10.67,
            7.61,
            7.25,
            7.48,
            8.13,
            9.33,
            8.29,
            8.02,
            8.91,
            7.61,
            7.46,
            7.77,
            7.57,
            8.03,
            9.96,
            9.62,
            12.56,
            8.92,
            8.11,
            10.33,
            11.94,
            8.35,
            7.62,
            7.87,
            11.85,
            8.63,
            8.92,
            9.2,
            8.76,
            8.9,
            8.29,
            9.29,
            9.97,
            10.88,
            11.18,
            13.0,
            14.95,
            14.29,
            14.4,
            13.33,
            12.91,
            11.81,
            11.82,
            16.09,
            15.1,
            12.95,
            12.22,
            10.15,
            8.88,
            8.49,
            9.29,
            11.97,
            11.91,
            12.02,
            12.36,
            13.76,
            15.26,
            13.53,
            11.26,
            10.06,
            9.37,
            8.76,
            8.53,
            11.87,
            14.52,
            12.2,
            8.19,
            8.35,
            8.48,
            9.4,
            17.19,
            9.06,
            12.46,
            10.87,
            9.15,
            9.22,
            10.15,
            10.63,
            11.25,
            13.59,
            15.27,
            17.48,
            13.49,
            14.84,
            14.65,
            13.55,
            11.96,
            9.74,
            10.07,
            11.4,
            12.33,
            12.01,
            12.83,
            12.18,
            14.84,
            16.1,
            13.05,
            11.22,
            13.37,
            13.11,
            9.94,
            11.8,
            9.65,
            8.98,
            9.3,
            9.52,
            11.79,
            12.69,
            11.95,
            12.27,
            13.8,
            10.93,
            9.59,
            9.57,
            9.67,
            9.82,
            9.47,
            9.0,
            9.53,
            10.59,
            11.33,
            11.18,
            14.63,
            11.06,
            10.12,
            10.31,
            9.84,
            9.96,
            9.62,
            9.71,
            9.87,
            10.15,
            9.57,
            9.62,
            10.95,
            11.06,
            11.29,
            10.2,
            9.84,
            11.03,
            13.65,
            15.28,
            11.44,
            11.09,
            10.89,
            11.84,
            11.51,
            11.35,
            11.68,
            12.43,
            13.94,
            11.95,
            12.75,
            13.05,
            13.01,
            12.91,
            12.85,
            12.91,
            12.69,
            13.05,
            13.53,
            14.36,
            13.99,
            14.04,
            13.95,
            13.97,
            14.54,
            15.14,
            14.82,
            14.92,
            15.41,
            16.2,
            15.53,
            15.46,
            15.81,
            15.4,
            15.72,
            16.33,
            16.83,
            17.39,
            17.39,
            17.28,
            17.35,
            17.09,
            18.78,
            17.86,
            16.91,
            18.04,
            18.55,
            18.53,
            18.94,
            19.24,
            18.64,
            18.71,
            19.96,
            19.72,
            19.61,
            19.53,
            26.64,
            24.85,
            21.3,
            21.79,
            22.0,
            23.11,
            22.1,
            28.83,
            24.28,
            24.19,
            24.2,
            25.6,
            25.67,
            25.0,
            26.65,
            27.41,
            27.69,
            27.23,
            28.57,
            29.3,
            29.03,
            29.15,
            30.16,
            31.25,
            31.07,
            39.95,
            33.29,
            32.44,
            32.79,
            34.4,
            34.6,
            34.27,
            36.44,
            53.21,
            8.83,
            9.48,
            10.06,
            8.35,
            8.34,
            11.08,
            13.06,
            19.86,
            13.25,
            11.74,
            15.06,
            15.55,
            13.68,
            14.03,
            11.18,
            13.43,
            13.92,
            10.09,
            10.79,
            14.18,
            10.59,
            7.5,
            7.42,
            7.74,
            6.42
          ],
          [
            4.1,
            4.1,
            4.1,
            4.1,
            4.1,
            4.1,
            4.1,
            4.1,
            4.1,
            4.1,
            4.1,
            4.1,
            4.1,
            4.1,
            4.1,
            4.1,
            4.1,
            4.1,
            4.1,
            4.1,
            4.1,
            4.1,
            4.1,
            4.1,
            4.1,
            4.1,
            4.1,
            4.1,
            4.1,
            4.1,
            4.1,
            4.1,
            4.1,
            4.1,
            4.1,
            4.1,
            4.1,
            4.1,
            4.1,
            4.1,
            4.1,
            4.1,
            4.1,
            4.1,
            4.1,
            4.1,
            4.1,
            4.1,
            4.1,
            4.1,
            4.1,
            4.1,
            4.1,
            4.1,
            4.1,
            4.1,
            4.1,
            4.1,
            4.1,
            4.1,
            4.1,
            4.1,
            4.1,
            4.1,
            4.1,
            4.1,
            4.1,
            4.1,
            4.1,
            4.1,
            4.1,
            4.1,
            4.1,
            4.1,
            4.1,
            4.1,
            4.1,
            4.1,
            4.1,
            4.1,
            4.1,
            4.1,
            4.1,
            4.1,
            4.1,
            4.1,
            4.1,
            4.1,
            4.1,
            4.1,
            4.1,
            4.1,
            4.1,
            4.1,
            4.1,
            4.1,
            4.1,
            4.1,
            4.1,
            4.1,
            4.1,
            4.1,
            4.1,
            4.1,
            4.1,
            4.1,
            4.1,
            4.1,
            4.1,
            4.1,
            4.1,
            4.1,
            4.1,
            4.1,
            4.1,
            4.1,
            4.1,
            4.1,
            4.1,
            4.1,
            4.1,
            4.1,
            4.1,
            4.1,
            4.1,
            4.1,
            4.1,
            4.1,
            4.1,
            4.1,
            4.1,
            4.1,
            4.1,
            4.1,
            4.1,
            4.1,
            4.1,
            4.1,
            4.1,
            4.1,
            4.1,
            4.1,
            4.1,
            4.1,
            4.1,
            4.1,
            4.1,
            4.1,
            4.1,
            4.1,
            4.1,
            4.1,
            4.1,
            4.1,
            4.1,
            4.1,
            4.1,
            4.1,
            4.1,
            4.1,
            4.1,
            4.1,
            4.1,
            4.1,
            4.1,
            4.1,
            4.1,
            4.1,
            4.1,
            4.1,
            4.1,
            4.1,
            4.1,
            4.1,
            4.1,
            4.1,
            4.1,
            4.1,
            4.1,
            4.1,
            4.1,
            4.1,
            4.1,
            4.1,
            4.1,
            4.1,
            4.1,
            4.1,
            4.1,
            4.1,
            4.1,
            4.1,
            4.1,
            4.1,
            4.1,
            4.1,
            4.1,
            4.1,
            4.1,
            4.1,
            4.1,
            4.1,
            4.1,
            4.1,
            4.1,
            4.1,
            4.1,
            4.1,
            4.1,
            4.1,
            4.1,
            4.1,
            4.1,
            4.1,
            4.1,
            4.1,
            4.1,
            4.1,
            4.1,
            4.1,
            4.1,
            4.1,
            4.1,
            4.1,
            4.1,
            4.1,
            4.1,
            4.1,
            4.1,
            4.1,
            4.1,
            4.1,
            4.1,
            4.1,
            4.1,
            4.1,
            4.1,
            4.1,
            4.1,
            4.1,
            4.1,
            4.1,
            4.1,
            4.1,
            4.1,
            4.1,
            4.1,
            4.1,
            4.1,
            4.1,
            4.1,
            4.1,
            4.1,
            4.1,
            4.1,
            4.1,
            4.1,
            4.1,
            4.1,
            4.1,
            4.1,
            4.1,
            4.1,
            4.1,
            4.1,
            4.1,
            4.1,
            4.1,
            4.1,
            4.1,
            4.1,
            4.1,
            4.1,
            4.1,
            4.1,
            4.1,
            4.1,
            4.1,
            4.1,
            4.1,
            4.1,
            4.1,
            4.1,
            4.1,
            4.1,
            4.1,
            4.1,
            4.1,
            4.1,
            4.1,
            4.1,
            4.1,
            4.1,
            4.1,
            4.1,
            4.1,
            4.1,
            4.1,
            4.1,
            4.1,
            4.1,
            4.1,
            4.1,
            5.7,
            5.7,
            5.7,
            5.7,
            5.7,
            5.7,
            5.7,
            5.7,
            5.7,
            5.7,
            5.7,
            5.7,
            5.7,
            5.7,
            5.7,
            5.7,
            5.7,
            5.7,
            5.7,
            5.7,
            5.7,
            5.7,
            5.7,
            5.7,
            5.7
          ]
        ]
      }
    },
    "005": {
      "common": {
        "heads": [
          "ERR-SYS"
        ],
        "units": [
          "PER-CENT"
        ],
        "data": [
          [
            5.7
          ]
        ]
      },
      "data": {
        "heads": [
          "EN",
          "DATA",
          "ERR-T"
        ],
        "units": [
          "EV",
          "B",
          "PER-CENT"
        ],
        "data": [
          [
            101191.0,
            103302.0,
            105479.0,
            107726.0,
            110046.0,
            112441.0,
            114916.0,
            117473.0,
            120116.0,
            122849.0,
            125677.0,
            128604.0,
            131634.0,
            134773.0,
            138025.0,
            141396.0,
            144893.0,
            148520.0,
            152286.0,
            156197.0,
            160260.0,
            164484.0,
            168877.0,
            173449.0,
            178209.0,
            183167.0,
            188336.0,
            193726.0,
            199351.0,
            205224.0,
            211362.0,
            217778.0,
            224491.0,
            231520.0,
            238884.0,
            246605.0,
            254707.0,
            263214.0,
            272155.0,
            281559.0,
            291460.0,
            301892.0,
            312894.0,
            324509.0,
            336783.0,
            349767.0,
            363517.0,
            378093.0,
            393565.0,
            410006.0,
            427499.0,
            446136.0,
            466019.0,
            487262.0,
            509992.0,
            534350.0,
            560496.0,
            588609.0,
            618893.0,
            651575.0,
            686916.0,
            725214.0,
            766807.0,
            812084.0,
            861494.0,
            915556.0,
            974872.0,
            1040150.0,
            1112210.0,
            1192020.0,
            1280760.0,
            1379780.0,
            1490760.0,
            1615680.0,
            1757010.0,
            1917730.0,
            2101570.0,
            2313190.0,
            2558480.0,
            2845000.0
          ],
          [
            2.1037,
            2.1122,
            2.133,
            2.2505,
            2.1951,
            2.1296,
            2.1483,
            2.2182,
            2.2579,
            2.2238,
            2.21,
            2.228,
            2.1648,
            2.1006,
            2.1072,
            2.1352,
            1.9107,
            1.9817,
            2.0499,
            2.0842,
            2.2263,
            2.1239,
            2.0722,
            2.0988,
            2.1147,
            2.1346,
            2.2254,
            2.1231,
            2.2092,
            2.0884,
            2.2709,
            2.0772,
            2.1901,
            2.1827,
            2.1333,
            2.214,
            2.116,
            2.2298,
            2.1649,
            2.1988,
            2.1945,
            2.1444,
            2.184,
            2.1892,
            2.0065,
            2.0391,
            2.1574,
            2.1062,
            1.9421,
            1.8991,
            2.1616,
            2.1226,
            1.9864,
            2.115,
            1.857,
            1.9631,
            1.8732,
            1.9462,
            1.8872,
            1.9373,
            1.8462,
            1.847,
            1.7777,
            1.7876,
            1.7318,
            1.6583,
            1.6533,
            1.6941,
            1.6553,
            1.6748,
            1.6623,
            1.7246,
            1.6557,
            1.6848,
            1.7511,
            1.6207,
            1.3301,
            1.5185,
            1.6109,
            1.5861
          ],
          [
            6.79,
            13.12,
            11.67,
            11.6,
            8.42,
            12.06,
            10.7,
            8.09,
            8.0,
            6.79,
            7.38,
            7.13,
            8.34,
            8.85,
            9.21,
            10.55,
            10.08,
            10.28,
            10.75,
            7.19,
            9.59,
            8.47,
            6.98,
            7.11,
            7.16,
            7.53,
            6.15,
            6.87,
            6.39,
            7.38,
            6.89,
            7.81,
            7.59,
            7.11,
            6.5,
            6.51,
            6.49,
            6.01,
            9.29,
            7.13,
            6.94,
            8.27,
            6.71,
            6.13,
            10.0,
            8.46,
            6.25,
            9.26,
            9.91,
            8.57,
            9.88,
            7.8,
            6.64,
            6.9,
            7.21,
            12.12,
            10.05,
            7.42,
            7.53,
            5.98,
            6.34,
            6.88,
            7.32,
            6.63,
            7.18,
            7.72,
            6.78,
            7.83,
            6.5,
            6.1,
            6.04,
            6.04,
            5.95,
            6.24,
            6.24,
            6.35,
            12.16,
            8.29,
            7.01,
            6.68
          ]
        ]
      }
    }
  },
  "experimental_conditions": {
    "001": {
      "0": {
        "correction": [
          {
            "x4_code": null,
            "free_txt": [
              "No correction for target contamination or for source-",
              " resolution function."
            ]
          }
        ],
        "detector": [
          {
            "x4_code": "(SOLST)",
            "free_txt": [
              " Solid state detector in current recording mode.",
              "3 detectors at 15, 55 and 90 degrees with solid angles",
              " 0.00814, 0.1923 and 0.0687 sr, respectively."
            ]
          }
        ],
        "err-analys": [
          {
            "x4_code": "(ERR-T)",
            "free_txt": [
              " Standard deviation"
            ]
          },
          {
            "x4_code": "(ERR-SYS,,,1.0)",
            "free_txt": [
              " Correlated error"
            ]
          }
        ],
        "inc-source": [
          {
            "x4_code": "(EXPLO)",
            "free_txt": [
              " Pommard."
            ]
          }
        ],
        "inc-spect": [
          {
            "x4_code": null,
            "free_txt": [
              "Incident neutron spectrum fission moderated to 130 eV."
            ]
          }
        ],
        "method": [
          {
            "x4_code": "(TOF)",
            "free_txt": [
              " Time-of-flight. 214.43-m flight path."
            ]
          }
        ],
        "sample": [
          {
            "x4_code": null,
            "free_txt": [
              "Sample contains 2.9% 235U contamination."
            ]
          }
        ],
        "status": [
          {
            "x4_code": "(APRVD)",
            "free_txt": [
              " Approved by author."
            ]
          },
          {
            "x4_code": "(TABLE)",
            "free_txt": [
              " Data received on magnetic tape from P.A.",
              " Seeger, August, 1970."
            ]
          }
        ]
      }
    },
    "002": {
      "0": {
        "analysis": [
          {
            "x4_code": null,
            "free_txt": [
              "Weighted average of 6 reading, 2 at each angle at 15,",
              " 55 and 90 degrees."
            ]
          }
        ],
        "monit-ref": [
          {
            "x4_code": "(14135002,G.deSaussure+,J,NSE,23,45,1965)",
            "free_txt": []
          }
        ],
        "monitor": [
          {
            "x4_code": "(92-U-235(N,F),,INT)",
            "free_txt": [
              " Integrals over 235U fission",
              " resonance from De Saussure used to normalize flux."
            ]
          }
        ]
      }
    },
    "003": {
      "0": {
        "analysis": [
          {
            "x4_code": null,
            "free_txt": [
              "Weighted average of data at 15, 55 and 90 degrees."
            ]
          }
        ],
        "comment": [
          {
            "x4_code": null,
            "free_txt": [
              "Data from 64 keV to 10 keV were lost due to",
              " malfunction of every amplifier at 50 microsec after",
              " the burst."
            ]
          }
        ],
        "monitor": [
          {
            "x4_code": "(3-LI-6(N,T)2-HE-4,,SIG)",
            "free_txt": [
              " flux relative to 6Li(n,alpha)",
              " at 2200m/sec, assuming 1/v dependence."
            ]
          }
        ]
      }
    },
    "004": {
      "0": {
        "analysis": [
          {
            "x4_code": null,
            "free_txt": [
              "Weighted average of 4 readings, 2 of each signal at 55",
              " and 90 degrees."
            ]
          }
        ],
        "monit-ref": [
          {
            "x4_code": "(,W.G.Davey+,J,NSE,32,35,1968)",
            "free_txt": []
          }
        ],
        "monitor": [
          {
            "x4_code": "(92-U-235(N,F),,SIG)",
            "free_txt": [
              " Interpolation  from 1 keV to 100 keV was done",
              "  by comparison with previous measurements, see",
              "  Browne, et al., LA-4095 (1970)."
            ]
          }
        ]
      }
    },
    "005": {
      "0": {
        "analysis": [
          {
            "x4_code": null,
            "free_txt": [
              "Weighted average of 4 readings, 2 of each signal at 55",
              " and 90 degrees."
            ]
          }
        ],
        "monit-ref": [
          {
            "x4_code": "(,W.G.Davey+,J,NSE,32,35,1968)",
            "free_txt": []
          }
        ],
        "monitor": [
          {
            "x4_code": "(92-U-235(N,F),,SIG)",
            "free_txt": [
              " Relative to 235U fission of Davey,",
              " modified to 55 degrees."
            ]
          }
        ]
      }
    }
  }
}