{
  "entry": "10054",
  "last_updated": "2006-07-20",
  "number_of_revisions": "3",
  "histories": [
    {
      "x4_code": "(19710408C)",
      "free_txt": []
    },
    {
      "x4_code": "(19810529A)",
      "free_txt": [
        " CONVERTED TO REACTION FORMALISM"
      ]
    },
    {
      "x4_code": "(19990907A)",
      "free_txt": [
        " Converted to new date formalism."
      ]
    }
  ],
  "bib_record": {
    "title": "Neutron induced fission cross sections for U235 from the Persimmon event.",
    "authors": [
      {
        "name": "J.D.Cramer"
      },
      {
        "name": "D.W.Bergen"
      }
    ],
    "institutes": [
      {
        "x4_code": "(1USALAS)",
        "free_txt": []
      }
    ],
    "references": [
      {
        "x4_code": "(R,LA-4285,196912)",
        "free_txt": [],
        "publication_year": "1969",
        "pointer": "0"
      }
    ]
  },
  "reactions": {
    "002": {
      "0": {
        "x4_code": "(92-U-235(N,F),,SIG)",
        "children": [
          {
            "code": [
              "92-U-235",
              [
                "N,F"
              ],
              ",,SIG"
            ],
            "type": null,
            "target": "92-U-235",
            "process": "N,F",
            "sf49": ",,SIG",
            "sf4": null,
            "sf5": null,
            "sf6": "SIG",
            "sf7": null,
            "sf8": null,
            "sf9": null
          }
        ],
        "type": null,
        "free_text": ""
      }
    }
  },
  "data_tables": {
    "001": {
      "common": null
    },
    "002": {
      "common": null,
      "data": {
        "heads": [
          "EN",
          "DATA",
          "DATA-ERR"
        ],
        "units": [
          "EV",
          "B",
          "PER-CENT"
        ],
        "data": [
          [
            20.0363,
            20.074,
            20.1118,
            20.1496,
            20.1875,
            20.2253,
            20.2633,
            20.3012,
            20.3392,
            20.3772,
            20.4153,
            20.4534,
            20.4915,
            20.5297,
            20.5679,
            20.6061,
            20.6444,
            20.6827,
            20.7211,
            20.7594,
            20.7979,
            20.8363,
            20.8748,
            20.9133,
            20.9519,
            20.9905,
            21.0291,
            21.0678,
            21.1065,
            21.1452,
            21.184,
            21.2228,
            21.2616,
            21.3005,
            21.3394,
            21.3784,
            21.4174,
            21.4564,
            21.4955,
            21.5346,
            21.5737,
            21.6129,
            21.6521,
            21.6913,
            21.7306,
            21.7699,
            21.8092,
            21.8486,
            21.888,
            21.9275,
            21.967,
            22.0065,
            22.0461,
            22.0857,
            22.1253,
            22.165,
            22.2047,
            22.2444,
            22.2842,
            22.324,
            22.3638,
            22.4037,
            22.4436,
            22.4836,
            22.5236,
            22.5636,
            22.6037,
            22.6438,
            22.6839,
            22.7241,
            22.7643,
            22.8045,
            22.8448,
            22.8851,
            22.9254,
            22.9658,
            23.0062,
            23.0467,
            23.0872,
            23.1277,
            23.1683,
            23.2089,
            23.2495,
            23.2902,
            23.3309,
            23.3716,
            23.4124,
            23.4532,
            23.494,
            23.5349,
            23.5758,
            23.6168,
            23.6578,
            23.6988,
            23.7399,
            23.781,
            23.8221,
            23.8633,
            23.9045,
            23.9457,
            23.987,
            24.0283,
            24.0696,
            24.111,
            24.1524,
            24.1939,
            24.2354,
            24.2769,
            24.3185,
            24.3601,
            24.4017,
            24.4434,
            24.4851,
            24.5268,
            24.5686,
            24.6104,
            24.6522,
            24.6941,
            24.736,
            24.778,
            24.82,
            24.862,
            24.9041,
            24.9462,
            24.9883,
            25.0305,
            25.0727,
            25.1149,
            25.1572,
            25.1995,
            25.2419,
            25.2842,
            25.3267,
            25.3691,
            25.4116,
            25.4541,
            25.4967,
            25.5393,
            25.5819,
            25.6246,
            25.6673,
            25.71,
            25.7528,
            25.7956,
            25.8385,
            25.8814,
            25.9243,
            25.9672,
            26.0102,
            26.0533,
            26.0963,
            26.1394,
            26.1826,
            26.2257,
            26.2689,
            26.3122,
            26.3555,
            26.3988,
            26.4421,
            26.4855,
            26.5289,
            26.5724,
            26.6159,
            26.6594,
            26.703,
            26.7466,
            26.7902,
            26.8339,
            26.8776,
            26.9213,
            26.9651,
            27.0089,
            27.0528,
            27.0967,
            27.1406,
            27.1845,
            27.2285,
            27.2726,
            27.3166,
            27.3607,
            27.4049,
            27.449,
            27.4932,
            27.5375,
            27.5818,
            27.6261,
            27.6704,
            27.7148,
            27.7592,
            27.8037,
            27.8482,
            27.8927,
            27.9373,
            27.9819,
            28.0265,
            28.0712,
            28.1159,
            28.1607,
            28.2054,
            28.2503,
            28.2951,
            28.34,
            28.3849,
            28.4299,
            28.4749,
            28.5199,
            28.565,
            28.6101,
            28.6552,
            28.7004,
            28.7456,
            28.7908,
            28.8361,
            28.8814,
            28.9268,
            28.9722,
            29.0176,
            29.0631,
            29.1086,
            29.1541,
            29.1997,
            29.2453,
            29.2909,
            29.3366,
            29.3823,
            29.428,
            29.4738,
            29.5196,
            29.5655,
            29.6114,
            29.6573,
            29.7033,
            29.7493,
            29.7953,
            29.8414,
            29.8875,
            29.9336,
            29.9798,
            30.026,
            30.0723,
            30.1186,
            30.1649,
            30.2112,
            30.2576,
            30.3041,
            30.3505,
            30.397,
            30.4436,
            30.4901,
            30.5367,
            30.5834,
            30.63,
            30.6768,
            30.7235,
            30.7703,
            30.8171,
            30.864,
            30.9109,
            30.9578,
            31.0048,
            31.0518,
            31.0988,
            31.1459,
            31.193,
            31.2401,
            31.2873,
            31.3345,
            31.3818,
            31.4291,
            31.4764,
            31.5237,
            31.5711,
            31.6186,
            31.666,
            31.7135,
            31.7611,
            31.8087,
            31.8563,
            31.9039,
            31.9516,
            31.9993,
            32.0471,
            32.0949,
            32.1427,
            32.1905,
            32.2384,
            32.2864,
            32.3343,
            32.3823,
            32.4304,
            32.4785,
            32.5266,
            32.5747,
            32.6229,
            32.6711,
            32.7194,
            32.7677,
            32.816,
            32.8643,
            32.9127,
            32.9612,
            33.0097,
            33.0582,
            33.1067,
            33.1553,
            33.2039,
            33.2525,
            33.3012,
            33.3499,
            33.3987,
            33.4475,
            33.4963,
            33.5452,
            33.5941,
            33.643,
            33.692,
            33.741,
            33.79,
            33.8391,
            33.8882,
            33.9374,
            33.9866,
            34.0358,
            34.0851,
            34.1343,
            34.1837,
            34.233,
            34.2824,
            34.3319,
            34.3814,
            34.4309,
            34.4804,
            34.53,
            34.5796,
            34.6293,
            34.6789,
            34.7287,
            34.7784,
            34.8282,
            34.8781,
            34.9279,
            34.9778,
            35.0278,
            35.0777,
            35.1278,
            35.1778,
            35.2279,
            35.278,
            35.3282,
            35.3784,
            35.4286,
            35.4788,
            35.5291,
            35.5795,
            35.6298,
            35.6802,
            35.7307,
            35.7812,
            35.8317,
            35.8822,
            35.9328,
            35.9834,
            36.0341,
            36.0848,
            36.1355,
            36.1863,
            36.2371,
            36.2879,
            36.3388,
            36.3897,
            36.4406,
            36.4916,
            36.5426,
            36.5937,
            36.6448,
            36.6959,
            36.747,
            36.7982,
            36.8495,
            36.9007,
            36.952,
            37.0034,
            37.0548,
            37.1062,
            37.1576,
            37.2091,
            37.2606,
            37.3122,
            37.3638,
            37.4154,
            37.467,
            37.5187,
            37.5705,
            37.6222,
            37.674,
            37.7259,
            37.7778,
            37.8297,
            37.8816,
            37.9336,
            37.9856,
            38.0377,
            38.0898,
            38.1419,
            38.1941,
            38.2463,
            38.2985,
            38.3508,
            38.4031,
            38.4554,
            38.5078,
            38.5602,
            38.6127,
            38.6652,
            38.7177,
            38.7702,
            38.8228,
            38.8755,
            38.9281,
            38.9808,
            39.0336,
            39.0863,
            39.1391,
            39.192,
            39.2449,
            39.2978,
            39.3507,
            39.4037,
            39.4568,
            39.5098,
            39.5629,
            39.616,
            39.6692,
            39.7224,
            39.7757,
            39.8289,
            39.8822,
            39.9356,
            39.989,
            40.0438,
            40.0972,
            40.1507,
            40.2042,
            40.2578,
            40.3114,
            40.365,
            40.4187,
            40.4724,
            40.5262,
            40.5799,
            40.6338,
            40.6876,
            40.7415,
            40.7954,
            40.8494,
            40.9034,
            40.9574,
            41.0115,
            41.0656,
            41.1197,
            41.1739,
            41.2281,
            41.2824,
            41.3366,
            41.391,
            41.4453,
            41.4997,
            41.5541,
            41.6086,
            41.6631,
            41.7176,
            41.7722,
            41.8268,
            41.8814,
            41.9361,
            41.9908,
            42.0456,
            42.1004,
            42.1552,
            42.21,
            42.2649,
            42.3199,
            42.3748,
            42.4298,
            42.4849,
            42.5399,
            42.595,
            42.6502,
            42.7054,
            42.7606,
            42.8158,
            42.8711,
            42.9265,
            42.9818,
            43.0372,
            43.0926,
            43.1481,
            43.2036,
            43.2592,
            43.3147,
            43.3703,
            43.426,
            43.4817,
            43.5374,
            43.5932,
            43.6489,
            43.7048,
            43.7606,
            43.8165,
            43.8725,
            43.9284,
            43.9844,
            44.0405,
            44.0966,
            44.1527,
            44.2088,
            44.265,
            44.3212,
            44.3775,
            44.4338,
            44.4901,
            44.5465,
            44.6029,
            44.6593,
            44.7158,
            44.7723,
            44.8289,
            44.8854,
            44.9421,
            44.9987,
            45.0554,
            45.1121,
            45.1689,
            45.2257,
            45.2825,
            45.3394,
            45.3963,
            45.4532,
            45.5102,
            45.5672,
            45.6243,
            45.6814,
            45.7385,
            45.7956,
            45.8528,
            45.9101,
            45.9673,
            46.0246,
            46.082,
            46.1393,
            46.1968,
            46.2542,
            46.3117,
            46.3692,
            46.4267,
            46.4843,
            46.542,
            46.5996,
            46.6573,
            46.715,
            46.7728,
            46.8306,
            46.8885,
            46.9463,
            47.0042,
            47.0622,
            47.1202,
            47.1782,
            47.2363,
            47.2943,
            47.3525,
            47.4106,
            47.4688,
            47.5271,
            47.5853,
            47.6437,
            47.702,
            47.7604,
            47.8188,
            47.8772,
            47.9357,
            47.9943,
            48.0528,
            48.1114,
            48.17,
            48.2287,
            48.2874,
            48.3462,
            48.4049,
            48.4637,
            48.5226,
            48.5815,
            48.6404,
            48.6993,
            48.7583,
            48.8174,
            48.8764,
            48.9355,
            48.9947,
            49.0538,
            49.113,
            49.1723,
            49.2316,
            49.2909,
            49.3502,
            49.4096,
            49.469,
            49.5285,
            49.588,
            49.6475,
            49.7071,
            49.7667,
            49.8263,
            49.886,
            49.9457,
            50.0055,
            50.0653,
            50.1251,
            50.1849,
            50.2448,
            50.3047,
            50.3647,
            50.4247,
            50.4847,
            50.5448,
            50.6049,
            50.6651,
            50.7252,
            50.7854,
            50.8457,
            50.906,
            50.9663,
            51.0267,
            51.0871,
            51.1475,
            51.208,
            51.2685,
            51.329,
            51.3896,
            51.4502,
            51.5108,
            51.5715,
            51.6322,
            51.693,
            51.7538,
            51.8146,
            51.8755,
            51.9364,
            51.9973,
            52.0583,
            52.1193,
            52.1803,
            52.2414,
            52.3025,
            52.3637,
            52.4248,
            52.4861,
            52.5473,
            52.6086,
            52.67,
            52.7313,
            52.7927,
            52.8542,
            52.9156,
            52.9771,
            53.0387,
            53.1003,
            53.1619,
            53.2236,
            53.2852,
            53.347,
            53.4087,
            53.4705,
            53.5324,
            53.5942,
            53.6561,
            53.7181,
            53.7801,
            53.8421,
            53.9041,
            53.9662,
            54.0283,
            54.0905,
            54.1527,
            54.2149,
            54.2772,
            54.3395,
            54.4018,
            54.4642,
            54.5266,
            54.5891,
            54.6515,
            54.7141,
            54.7766,
            54.8392,
            54.9018,
            54.9645,
            55.0272,
            55.0899,
            55.1527,
            55.2155,
            55.2784,
            55.3412,
            55.4042,
            55.4671,
            55.5301,
            55.5931,
            55.6562,
            55.7193,
            55.7824,
            55.8456,
            55.9088,
            55.972,
            56.0353,
            56.0986,
            56.1619,
            56.2253,
            56.2887,
            56.3522,
            56.4157,
            56.4792,
            56.5428,
            56.6064,
            56.67,
            56.7337,
            56.7974,
            56.8611,
            56.9249,
            56.9887,
            57.0526,
            57.1165,
            57.1804,
            57.2444,
            57.3084,
            57.3724,
            57.4365,
            57.5006,
            57.5647,
            57.6289,
            57.6931,
            57.7573,
            57.8216,
            57.8859,
            57.9503,
            58.0147,
            58.0791,
            58.1436,
            58.2081,
            58.2726,
            58.3372,
            58.4018,
            58.4665,
            58.5311,
            58.5958,
            58.6606,
            58.7254,
            58.7902,
            58.8551,
            58.92,
            58.9849,
            59.0499,
            59.1149,
            59.1799,
            59.245,
            59.3101,
            59.3753,
            59.4404,
            59.5057,
            59.5709,
            59.6362,
            59.7016,
            59.7669,
            59.8323,
            59.8978,
            59.9632,
            60.0287,
            60.0943,
            60.149,
            60.2146,
            60.2802,
            60.3459,
            60.4116,
            60.4774,
            60.5432,
            60.609,
            60.6749,
            60.7408,
            60.8067,
            60.8727,
            60.9387,
            61.0047,
            61.0708,
            61.1369,
            61.2031,
            61.2693,
            61.3355,
            61.4018,
            61.4681,
            61.5344,
            61.6008,
            61.6672,
            61.7336,
            61.8001,
            61.8666,
            61.9332,
            61.9997,
            62.0664,
            62.133,
            62.1997,
            62.2664,
            62.3332,
            62.4,
            62.4668,
            62.5337,
            62.6006,
            62.6676,
            62.7346,
            62.8016,
            62.8686,
            62.9357,
            63.0029,
            63.07,
            63.1372,
            63.2045,
            63.2717,
            63.339,
            63.4064,
            63.4738,
            63.5412,
            63.6086,
            63.6761,
            63.7436,
            63.8112,
            63.8788,
            63.9464,
            64.0141,
            64.0818,
            64.1495,
            64.2173,
            64.2851,
            64.353,
            64.4209,
            64.4888,
            64.5567,
            64.6247,
            64.6928,
            64.7608,
            64.8289,
            64.8971,
            64.9652,
            65.0335,
            65.1017,
            65.17,
            65.2383,
            65.3067,
            65.375,
            65.4435,
            65.5119,
            65.5804,
            65.649,
            65.7175,
            65.7861,
            65.8548,
            65.9235,
            65.9922,
            66.0609,
            66.1297,
            66.1985,
            66.2674,
            66.3363,
            66.4052,
            66.4742,
            66.5432,
            66.6123,
            66.6813,
            66.7504,
            66.8196,
            66.8888,
            66.958,
            67.0272,
            67.0965,
            67.1659,
            67.2352,
            67.3046,
            67.3741,
            67.4435,
            67.5131,
            67.5826,
            67.6522,
            67.7218,
            67.7915,
            67.8611,
            67.9309,
            68.0006,
            68.0704,
            68.1403,
            68.2101,
            68.28,
            68.35,
            68.42,
            68.49,
            68.56,
            68.6301,
            68.7002,
            68.7704,
            68.8406,
            68.9108,
            68.9811,
            69.0514,
            69.1217,
            69.1921,
            69.2625,
            69.333,
            69.4035,
            69.474,
            69.5445,
            69.6151,
            69.6858,
            69.7564,
            69.8271,
            69.8979,
            69.9686,
            70.0394,
            70.1103,
            70.1812,
            70.2521,
            70.323,
            70.394,
            70.4651,
            70.5361,
            70.6072,
            70.6784,
            70.7495,
            70.8207,
            70.892,
            70.9633,
            71.0346,
            71.1059,
            71.1773,
            71.2487,
            71.3202,
            71.3917,
            71.4632,
            71.5348,
            71.6064,
            71.678,
            71.7497,
            71.8214,
            71.8932,
            71.965,
            72.0368,
            72.1086,
            72.1805,
            72.2525,
            72.3244,
            72.3964,
            72.4685,
            72.5405,
            72.6126,
            72.6848,
            72.757,
            72.8292,
            72.9014,
            72.9737,
            73.0461,
            73.1184,
            73.1908,
            73.2633,
            73.3357,
            73.4082,
            73.4808,
            73.5534,
            73.626,
            73.6986,
            73.7713,
            73.844,
            73.9168,
            73.9896,
            74.0624,
            74.1353,
            74.2082,
            74.2812,
            74.3541,
            74.4271,
            74.5002,
            74.5733,
            74.6464,
            74.7196,
            74.7928,
            74.866,
            74.9393,
            75.0126,
            75.0859,
            75.1593,
            75.2327,
            75.3061,
            75.3796,
            75.4531,
            75.5267,
            75.6003,
            75.6739,
            75.7476,
            75.8213,
            75.895,
            75.9688,
            76.0426,
            76.1165,
            76.1903,
            76.2643,
            76.3382,
            76.4122,
            76.4862,
            76.5603,
            76.6344,
            76.7085,
            76.7827,
            76.8569,
            76.9311,
            77.0054,
            77.0797,
            77.1541,
            77.2285,
            77.3029,
            77.3774,
            77.4519,
            77.5264,
            77.601,
            77.6756,
            77.7502,
            77.8249,
            77.8996,
            77.9743,
            78.0491,
            78.1239,
            78.1988,
            78.2737,
            78.3486,
            78.4236,
            78.4986,
            78.5736,
            78.6487,
            78.7238,
            78.799,
            78.8742,
            78.9494,
            79.0246,
            79.0999,
            79.1753,
            79.2506,
            79.326,
            79.4015,
            79.4769,
            79.5524,
            79.628,
            79.7036,
            79.7792,
            79.8548,
            79.9305,
            80.0063,
            80.082,
            80.1604,
            80.2363,
            80.3121,
            80.3881,
            80.464,
            80.54,
            80.616,
            80.692,
            80.7681,
            80.8443,
            80.9204,
            80.9966,
            81.0729,
            81.1491,
            81.2254,
            81.3018,
            81.3782,
            81.4546,
            81.531,
            81.6075,
            81.684,
            81.7606,
            81.8372,
            81.9138,
            81.9905,
            82.0672,
            82.1439,
            82.2207,
            82.2975,
            82.3744,
            82.4513,
            82.5282,
            82.6052,
            82.6821,
            82.7592,
            82.8362,
            82.9134,
            82.9905,
            83.0677,
            83.1449,
            83.2221,
            83.2994,
            83.3767,
            83.4541,
            83.5315,
            83.6089,
            83.6864,
            83.7639,
            83.8414,
            83.919,
            83.9966,
            84.0743,
            84.1519,
            84.2297,
            84.3074,
            84.3852,
            84.463,
            84.5409,
            84.6188,
            84.6967,
            84.7747,
            84.8527,
            84.9308,
            85.0088,
            85.087,
            85.1651,
            85.2433,
            85.3215,
            85.3998,
            85.4781,
            85.5564,
            85.6348,
            85.7132,
            85.7917,
            85.8701,
            85.9486,
            86.0272,
            86.1058,
            86.1844,
            86.2631,
            86.3418,
            86.4205,
            86.4993,
            86.5781,
            86.6569,
            86.7358,
            86.8147,
            86.8937,
            86.9727,
            87.0517,
            87.1307,
            87.2098,
            87.289,
            87.3681,
            87.4473,
            87.5266,
            87.6059,
            87.6852,
            87.7645,
            87.8439,
            87.9233,
            88.0028,
            88.0823,
            88.1618,
            88.2414,
            88.321,
            88.4006,
            88.4803,
            88.56,
            88.6398,
            88.7195,
            88.7994,
            88.8792,
            88.9591,
            89.0391,
            89.119,
            89.199,
            89.2791,
            89.3591,
            89.4392,
            89.5194,
            89.5996,
            89.6798,
            89.7601,
            89.8403,
            89.9207,
            90.001,
            90.0814,
            90.1619,
            90.2423,
            90.3229,
            90.4034,
            90.484,
            90.5646,
            90.6453,
            90.7259,
            90.8067,
            90.8874,
            90.9682,
            91.0491,
            91.1299,
            91.2108,
            91.2918,
            91.3728,
            91.4538,
            91.5348,
            91.6159,
            91.697,
            91.7782,
            91.8594,
            91.9406,
            92.0219,
            92.1032,
            92.1846,
            92.2659,
            92.3473,
            92.4288,
            92.5104,
            92.5921,
            92.6739,
            92.7559,
            92.8379,
            92.92,
            93.0023,
            93.0846,
            93.1671,
            93.2496,
            93.3323,
            93.4151,
            93.498,
            93.581,
            93.6641,
            93.7474,
            93.8307,
            93.9142,
            93.9977,
            94.0814,
            94.1652,
            94.2491,
            94.3331,
            94.4172,
            94.5015,
            94.5858,
            94.6703,
            94.7548,
            94.8395,
            94.9243,
            95.0092,
            95.0943,
            95.1794,
            95.2647,
            95.35,
            95.4355,
            95.5211,
            95.6068,
            95.6927,
            95.7786,
            95.8647,
            95.9509,
            96.0371,
            96.1236,
            96.2101,
            96.2967,
            96.3835,
            96.4703,
            96.5573,
            96.6444,
            96.7317,
            96.819,
            96.9065,
            96.9941,
            97.0818,
            97.1696,
            97.2575,
            97.3456,
            97.4337,
            97.522,
            97.6105,
            97.699,
            97.7876,
            97.8764,
            97.9653,
            98.0543,
            98.1435,
            98.2327,
            98.3221,
            98.4116,
            98.5013,
            98.591,
            98.6809,
            98.7709,
            98.861,
            98.9512,
            99.0416,
            99.1321,
            99.2227,
            99.3134,
            99.4043,
            99.4953,
            99.5864,
            99.6776,
            99.7689,
            99.8604,
            99.952,
            100.044,
            100.136,
            100.228,
            100.386,
            100.479,
            100.571,
            100.664,
            100.756,
            100.849,
            100.942,
            101.035,
            101.129,
            101.222,
            101.315,
            101.409,
            101.503,
            101.597,
            101.691,
            101.785,
            101.879,
            101.973,
            102.068,
            102.163,
            102.257,
            102.352,
            102.447,
            102.543,
            102.638,
            102.733,
            102.829,
            102.925,
            103.02,
            103.116,
            103.213,
            103.309,
            103.405,
            103.502,
            103.598,
            103.695,
            103.792,
            103.889,
            103.986,
            104.084,
            104.181,
            104.279,
            104.376,
            104.474,
            104.572,
            104.671,
            104.769,
            104.867,
            104.966,
            105.065,
            105.163,
            105.262,
            105.362,
            105.461,
            105.56,
            105.66,
            105.759,
            105.859,
            105.959,
            106.059,
            106.16,
            106.26,
            106.36,
            106.461,
            106.562,
            106.663,
            106.764,
            106.865,
            106.967,
            107.068,
            107.17,
            107.272,
            107.374,
            107.476,
            107.578,
            107.681,
            107.783,
            107.886,
            107.989,
            108.092,
            108.195,
            108.298,
            108.401,
            108.505,
            108.609,
            108.713,
            108.817,
            108.921,
            109.025,
            109.13,
            109.234,
            109.339,
            109.444,
            109.549,
            109.654,
            109.76,
            109.865,
            109.971,
            110.077,
            110.183,
            110.289,
            110.395,
            110.502,
            110.608,
            110.715,
            110.822,
            110.929,
            111.036,
            111.144,
            111.251,
            111.359,
            111.467,
            111.575,
            111.683,
            111.791,
            111.9,
            112.008,
            112.117,
            112.226,
            112.335,
            112.444,
            112.554,
            112.663,
            112.773,
            112.883,
            112.993,
            113.103,
            113.214,
            113.324,
            113.435,
            113.546,
            113.657,
            113.768,
            113.879,
            113.991,
            114.103,
            114.214,
            114.326,
            114.439,
            114.551,
            114.663,
            114.776,
            114.889,
            115.002,
            115.115,
            115.228,
            115.342,
            115.456,
            115.569,
            115.683,
            115.798,
            115.912,
            116.026,
            116.141,
            116.256,
            116.371,
            116.486,
            116.602,
            116.717,
            116.833,
            116.949,
            117.065,
            117.181,
            117.297,
            117.414,
            117.531,
            117.648,
            117.765,
            117.882,
            117.999,
            118.117,
            118.235,
            118.353,
            118.471,
            118.589,
            118.708,
            118.826,
            118.945,
            119.064,
            119.184,
            119.303,
            119.422,
            119.542,
            119.662,
            119.782,
            119.903,
            120.023,
            120.144,
            120.264,
            120.385,
            120.507,
            120.628,
            120.75,
            120.871,
            120.993,
            121.115,
            121.238,
            121.36,
            121.483,
            121.606,
            121.729,
            121.852,
            121.975,
            122.099,
            122.223,
            122.347,
            122.471,
            122.595,
            122.72,
            122.844,
            122.969,
            123.095,
            123.22,
            123.345,
            123.471,
            123.597,
            123.723,
            123.849,
            123.976,
            124.102,
            124.229,
            124.356,
            124.483,
            124.611,
            124.738,
            124.866,
            124.994,
            125.122,
            125.251,
            125.379,
            125.508,
            125.637,
            125.766,
            125.896,
            126.025,
            126.155,
            126.285,
            126.415,
            126.546,
            126.676,
            126.807,
            126.938,
            127.069,
            127.201,
            127.332,
            127.464,
            127.596,
            127.729,
            127.861,
            127.994,
            128.126,
            128.259,
            128.393,
            128.526,
            128.66,
            128.794,
            128.928,
            129.062,
            129.197,
            129.331,
            129.466,
            129.601,
            129.737,
            129.872,
            130.008,
            130.144,
            130.28,
            130.417,
            130.553,
            130.69,
            130.827,
            130.964,
            131.102,
            131.24,
            131.378,
            131.516,
            131.654,
            131.793,
            131.931,
            132.07,
            132.21,
            132.349,
            132.489,
            132.629,
            132.769,
            132.909,
            133.05,
            133.19,
            133.331,
            133.473,
            133.614,
            133.756,
            133.898,
            134.04,
            134.182,
            134.325,
            134.468,
            134.611,
            134.754,
            134.897,
            135.041,
            135.185,
            135.329,
            135.474,
            135.618,
            135.763,
            135.908,
            136.053,
            136.199,
            136.345,
            136.491,
            136.637,
            136.784,
            136.93,
            137.077,
            137.224,
            137.372,
            137.52,
            137.668,
            137.816,
            137.964,
            138.113,
            138.262,
            138.411,
            138.56,
            138.71,
            138.859,
            139.01,
            139.16,
            139.31,
            139.461,
            139.612,
            139.764,
            139.915,
            140.067,
            140.219,
            140.371,
            140.524,
            140.677,
            140.83,
            140.983,
            141.136,
            141.29,
            141.444,
            141.599,
            141.753,
            141.908,
            142.063,
            142.218,
            142.374,
            142.53,
            142.686,
            142.842,
            142.999,
            143.155,
            143.312,
            143.47,
            143.627,
            143.785,
            143.943,
            144.102,
            144.26,
            144.419,
            144.578,
            144.738,
            144.898,
            145.058,
            145.218,
            145.378,
            145.539,
            145.7,
            145.861,
            146.023,
            146.185,
            146.347,
            146.509,
            146.672,
            146.835,
            146.998,
            147.161,
            147.325,
            147.489,
            147.653,
            147.818,
            147.983,
            148.148,
            148.313,
            148.479,
            148.645,
            148.811,
            148.977,
            149.144,
            149.311,
            149.478,
            149.646,
            149.814,
            149.982,
            150.15,
            150.319,
            150.488,
            150.658,
            150.827,
            150.997,
            151.167,
            151.338,
            151.508,
            151.679,
            151.851,
            152.022,
            152.194,
            152.366,
            152.539,
            152.711,
            152.885,
            153.058,
            153.231,
            153.405,
            153.58,
            153.754,
            153.929,
            154.104,
            154.28,
            154.455,
            154.631,
            154.808,
            154.984,
            155.161,
            155.338,
            155.516,
            155.694,
            155.872,
            156.05,
            156.229,
            156.408,
            156.587,
            156.767,
            156.947,
            157.127,
            157.308,
            157.489,
            157.67,
            157.852,
            158.034,
            158.216,
            158.398,
            158.581,
            158.764,
            158.948,
            159.131,
            159.315,
            159.5,
            159.684,
            159.869,
            160.055,
            160.24,
            160.426,
            160.613,
            160.799,
            160.986,
            161.174,
            161.361,
            161.549,
            161.737,
            161.926,
            162.115,
            162.304,
            162.494,
            162.684,
            162.874,
            163.064,
            163.255,
            163.447,
            163.638,
            163.83,
            164.022,
            164.215,
            164.408,
            164.601,
            164.795,
            164.989,
            165.183,
            165.378,
            165.573,
            165.768,
            165.964,
            166.16,
            166.356,
            166.553,
            166.75,
            166.947,
            167.145,
            167.343,
            167.542,
            167.74,
            167.94,
            168.139,
            168.339,
            168.539,
            168.74,
            168.941,
            169.142,
            169.344,
            169.546,
            169.748,
            169.951,
            170.154,
            170.358,
            170.561,
            170.766,
            170.97,
            171.175,
            171.381,
            171.586,
            171.792,
            171.999,
            172.205,
            172.413,
            172.62,
            172.828,
            173.036,
            173.245,
            173.454,
            173.664,
            173.873,
            174.084,
            174.294,
            174.505,
            174.716,
            174.928,
            175.14,
            175.353,
            175.565,
            175.779,
            175.992,
            176.206,
            176.421,
            176.636,
            176.851,
            177.066,
            177.282,
            177.499,
            177.716,
            177.933,
            178.15,
            178.368,
            178.549,
            178.767,
            178.986,
            179.206,
            179.426,
            179.646,
            179.867,
            180.088,
            180.31,
            180.532,
            180.754,
            180.977,
            181.2,
            181.423,
            181.647,
            181.872,
            182.097,
            182.322,
            182.548,
            182.774,
            183.0,
            183.227,
            183.454,
            183.682,
            183.91,
            184.139,
            184.368,
            184.597,
            184.827,
            185.058,
            185.288,
            185.52,
            185.751,
            185.983,
            186.216,
            186.449,
            186.682,
            186.916,
            187.15,
            187.385,
            187.62,
            187.855,
            188.091,
            188.328,
            188.565,
            188.802,
            189.04,
            189.278,
            189.517,
            189.756,
            189.996,
            190.236,
            190.476,
            190.717,
            190.958,
            191.2,
            191.443,
            191.685,
            191.929,
            192.172,
            192.416,
            192.661,
            192.906,
            193.152,
            193.398,
            193.644,
            193.891,
            194.139,
            194.387,
            194.635,
            194.884,
            195.133,
            195.383,
            195.633,
            195.884,
            196.136,
            196.387,
            196.64,
            196.892,
            197.145,
            197.399,
            197.653,
            197.908,
            198.163,
            198.419,
            198.675,
            198.932,
            199.189,
            199.446,
            199.705,
            199.963,
            200.222,
            200.482,
            200.742,
            201.003,
            201.264,
            201.526,
            201.788,
            202.051,
            202.314,
            202.578,
            202.842,
            203.107,
            203.372,
            203.638,
            203.904,
            204.171,
            204.438,
            204.706,
            204.974,
            205.243,
            205.513,
            205.783,
            206.053,
            206.324,
            206.596,
            206.868,
            207.141,
            207.414,
            207.688,
            207.962,
            208.237,
            208.512,
            208.788,
            209.065,
            209.342,
            209.619,
            209.897,
            210.176,
            210.455,
            210.735,
            211.015,
            211.296,
            211.578,
            211.86,
            212.142,
            212.426,
            212.709,
            212.994,
            213.278,
            213.564,
            213.85,
            214.136,
            214.424,
            214.711,
            215.0,
            215.289,
            215.578,
            215.868,
            216.159,
            216.45,
            216.742,
            217.034,
            217.327,
            217.621,
            217.915,
            218.21,
            218.505,
            218.801,
            219.098,
            219.395,
            219.693,
            219.991,
            220.29,
            220.59,
            220.89,
            221.191,
            221.492,
            221.794,
            222.097,
            222.4,
            222.704,
            223.008,
            223.314,
            223.619,
            223.926,
            224.233,
            224.541,
            224.849,
            225.158,
            225.467,
            225.778,
            226.088,
            226.4,
            226.712,
            227.025,
            227.338,
            227.652,
            227.967,
            228.282,
            228.598,
            228.915,
            229.233,
            229.551,
            229.869,
            230.189,
            230.509,
            230.829,
            231.151,
            231.473,
            231.795,
            232.119,
            232.443,
            232.767,
            233.093,
            233.419,
            233.745,
            234.073,
            234.401,
            234.73,
            235.059,
            235.39,
            235.72,
            236.052,
            236.384,
            236.717,
            237.051,
            237.385,
            237.72,
            238.056,
            238.393,
            238.73,
            239.068,
            239.407,
            239.746,
            240.086,
            240.427,
            240.769,
            241.111,
            241.454,
            241.798,
            242.142,
            242.487,
            242.833,
            243.18,
            243.527,
            243.876,
            244.224,
            244.574,
            244.925,
            245.276,
            245.628,
            245.98,
            246.334,
            246.688,
            247.043,
            247.399,
            247.755,
            248.112,
            248.471,
            248.829,
            249.189,
            249.549,
            249.91,
            250.272,
            250.635,
            250.999,
            251.363,
            251.728,
            252.094,
            252.461,
            252.828,
            253.196,
            253.566,
            253.935,
            254.306,
            254.678,
            255.05,
            255.423,
            255.797,
            256.172,
            256.548,
            256.924,
            257.301,
            257.679,
            258.058,
            258.438,
            258.819,
            259.2,
            259.582,
            259.966,
            260.35,
            260.734,
            261.12,
            261.507,
            261.894,
            262.282,
            262.671,
            263.061,
            263.452,
            263.844,
            264.237,
            264.63,
            265.024,
            265.42,
            265.816,
            266.213,
            266.611,
            267.009,
            267.409,
            267.81,
            268.211,
            268.613,
            269.017,
            269.421,
            269.826,
            270.232,
            270.639,
            271.047,
            271.456,
            271.865,
            272.276,
            272.687,
            273.1,
            273.513,
            273.928,
            274.343,
            274.759,
            275.176,
            275.595,
            276.014,
            276.434,
            276.855,
            277.277,
            277.7,
            278.123,
            278.548,
            278.974,
            279.401,
            279.829,
            280.258,
            280.687,
            281.118,
            281.55,
            281.983,
            282.416,
            282.851,
            283.287,
            283.723,
            284.161,
            284.6,
            285.04,
            285.481,
            285.922,
            286.365,
            286.809,
            287.254,
            287.7,
            288.147,
            288.595,
            289.044,
            289.494,
            289.945,
            290.397,
            290.851,
            291.305,
            291.76,
            292.217,
            292.674,
            293.133,
            293.593,
            294.053,
            294.515,
            294.978,
            295.442,
            295.907,
            296.374,
            296.841,
            297.309,
            297.779,
            298.25,
            298.721,
            299.194,
            299.668,
            300.143,
            300.62,
            301.097,
            301.576,
            302.055,
            302.536,
            303.018,
            303.501,
            303.985,
            304.471,
            304.957,
            305.445,
            305.934,
            306.424,
            306.915,
            307.408,
            307.902,
            308.396,
            308.892,
            309.39,
            309.888,
            310.388,
            310.888,
            311.39,
            311.894,
            312.398,
            312.904,
            313.411,
            313.919,
            314.428,
            314.939,
            315.451,
            315.964,
            316.478,
            316.994,
            317.511,
            317.852,
            318.371,
            318.891,
            319.413,
            319.935,
            320.459,
            320.985,
            321.511,
            322.039,
            322.569,
            323.099,
            323.631,
            324.164,
            324.699,
            325.235,
            325.772,
            326.31,
            326.85,
            327.391,
            327.934,
            328.478,
            329.023,
            329.569,
            330.117,
            330.667,
            331.217,
            331.769,
            332.323,
            332.878,
            333.434,
            333.991,
            334.55,
            335.111,
            335.672,
            336.236,
            336.8,
            337.366,
            337.934,
            338.503,
            339.073,
            339.645,
            340.218,
            340.793,
            341.369,
            341.946,
            342.525,
            343.106,
            343.688,
            344.271,
            344.856,
            345.443,
            346.031,
            346.62,
            347.211,
            347.804,
            348.398,
            348.993,
            349.59,
            350.189,
            350.789,
            351.391,
            351.994,
            352.598,
            353.205,
            353.813,
            354.422,
            355.033,
            355.646,
            356.26,
            356.876,
            357.493,
            358.112,
            358.732,
            359.355,
            359.978,
            360.604,
            361.231,
            361.86,
            362.49,
            363.122,
            363.755,
            364.391,
            365.028,
            365.666,
            366.307,
            366.949,
            367.592,
            368.238,
            368.885,
            369.533,
            370.184,
            370.836,
            371.49,
            372.146,
            372.803,
            373.462,
            374.123,
            374.785,
            375.45,
            376.116,
            376.784,
            377.454,
            378.125,
            378.798,
            379.473,
            380.15,
            380.829,
            381.509,
            382.192,
            382.876,
            383.562,
            384.25,
            384.939,
            385.631,
            386.324,
            387.02,
            387.717,
            388.416,
            389.117,
            389.82,
            390.524,
            391.231,
            391.939,
            392.65,
            393.362,
            394.077,
            394.793,
            395.511,
            396.231,
            396.954,
            397.678,
            398.404,
            399.132,
            399.862,
            400.594,
            401.328,
            402.064,
            402.802,
            403.543,
            404.285,
            405.029,
            405.775,
            406.524,
            407.274,
            408.027,
            408.782,
            409.538,
            410.297,
            411.058,
            411.821,
            412.586,
            413.353,
            414.123,
            414.895,
            415.668,
            416.444,
            417.222,
            418.003,
            418.785,
            419.57,
            420.356,
            421.146,
            421.937,
            422.73,
            423.526,
            424.324,
            425.124,
            425.927,
            426.732,
            427.539,
            428.348,
            429.16,
            429.974,
            430.79,
            431.609,
            432.43,
            433.253,
            434.079,
            434.907,
            435.737,
            436.57,
            437.405,
            438.242,
            439.082,
            439.925,
            440.769,
            441.617,
            442.466,
            443.318,
            444.173,
            445.03,
            445.889,
            446.751,
            447.616,
            448.483,
            449.352,
            450.224,
            451.099,
            451.976,
            452.856,
            453.738,
            454.623,
            455.51,
            456.4,
            457.293,
            458.188,
            459.086,
            459.987,
            460.89,
            461.796,
            462.704,
            463.615,
            464.529,
            465.446,
            466.365,
            467.287,
            468.212,
            469.14,
            470.07,
            471.003,
            471.939,
            472.877,
            473.819,
            474.763,
            475.71,
            476.66,
            477.612,
            478.568,
            479.526,
            480.488,
            481.452,
            482.419,
            483.389,
            484.362,
            485.338,
            486.316,
            487.298,
            488.283,
            489.271,
            490.262,
            491.255,
            492.252,
            493.252,
            494.255,
            495.261,
            496.27,
            497.282,
            498.297,
            499.315,
            500.336,
            501.361,
            502.389,
            503.419,
            504.453,
            505.491,
            506.531,
            507.575,
            508.621,
            509.672,
            510.725,
            511.781,
            512.841,
            513.904,
            514.971,
            516.041,
            517.114,
            518.19,
            519.27,
            520.353,
            521.44,
            522.53,
            523.623,
            524.72,
            525.82,
            526.924,
            528.031,
            529.142,
            530.256,
            531.374,
            532.495,
            533.62,
            534.748,
            535.88,
            537.016,
            538.155,
            539.298,
            540.444,
            541.594,
            542.748,
            543.906,
            545.067,
            546.232,
            547.4,
            548.572,
            549.749,
            550.928,
            552.112,
            553.3,
            554.491,
            555.686,
            556.885,
            558.088,
            559.295,
            560.506,
            561.72,
            562.939,
            564.162,
            565.388,
            566.495,
            567.729,
            568.967,
            570.209,
            571.456,
            572.706,
            573.961,
            575.219,
            576.482,
            577.749,
            579.02,
            580.296,
            581.575,
            582.859,
            584.147,
            585.439,
            586.736,
            588.037,
            589.342,
            590.652,
            591.966,
            593.284,
            594.607,
            595.934,
            597.265,
            598.601,
            599.942,
            601.287,
            602.637,
            603.991,
            605.35,
            606.713,
            608.081,
            609.453,
            610.83,
            612.212,
            613.599,
            614.99,
            616.386,
            617.787,
            619.192,
            620.602,
            622.018,
            623.438,
            624.862,
            626.292,
            627.727,
            629.166,
            630.611,
            632.06,
            633.515,
            634.974,
            636.439,
            637.908,
            639.383,
            640.863,
            642.348,
            643.838,
            645.333,
            646.834,
            648.339,
            649.85,
            651.367,
            652.888,
            654.415,
            655.947,
            657.485,
            659.028,
            660.577,
            662.131,
            663.69,
            665.255,
            666.826,
            668.402,
            669.983,
            671.571,
            673.164,
            674.762,
            676.366,
            677.976,
            679.592,
            681.214,
            682.841,
            684.474,
            686.113,
            687.758,
            689.409,
            691.066,
            692.729,
            694.397,
            696.072,
            697.753,
            699.44,
            701.133,
            702.832,
            704.538,
            706.249,
            707.967,
            709.691,
            711.422,
            713.158,
            714.901,
            716.651,
            718.407,
            720.169,
            721.938,
            723.714,
            725.495,
            727.284,
            729.079,
            730.881,
            732.689,
            734.505,
            736.327,
            738.155,
            739.991,
            741.833,
            743.682,
            745.539,
            747.402,
            749.272,
            751.149,
            753.033,
            754.925,
            756.823,
            758.729,
            760.641,
            762.561,
            764.489,
            766.423,
            768.365,
            770.315,
            772.271,
            774.236,
            776.207,
            778.187,
            780.174,
            782.168,
            784.17,
            786.18,
            788.197,
            790.223,
            792.256,
            794.297,
            796.346,
            798.402,
            800.467,
            802.54,
            804.621,
            806.709,
            808.807,
            810.912,
            813.025,
            815.147,
            817.277,
            819.415,
            821.562,
            823.717,
            825.881,
            828.053,
            830.234,
            832.424,
            834.622,
            836.828,
            839.044,
            841.268,
            843.502,
            845.744,
            847.995,
            850.255,
            852.524,
            854.802,
            857.089,
            859.386,
            861.692,
            864.007,
            866.331,
            868.665,
            871.008,
            873.361,
            875.723,
            878.095,
            880.476,
            882.867,
            885.268,
            887.679,
            890.099,
            892.53,
            894.97,
            897.421,
            899.881,
            902.352,
            904.832,
            907.323,
            909.825,
            912.336,
            914.859,
            917.391,
            919.934,
            922.488,
            925.052,
            927.627,
            930.213,
            932.809,
            935.417,
            938.035,
            940.665,
            943.305,
            945.957,
            948.619,
            951.293,
            953.979,
            956.675,
            959.384,
            962.103,
            964.834,
            967.577,
            970.332,
            973.098,
            975.876,
            978.666,
            981.469,
            984.283,
            987.109,
            989.947,
            992.798,
            995.661,
            998.536,
            1001.42,
            1004.32,
            1007.24
          ],
          [
            18.8428,
            24.3641,
            28.4052,
            22.3801,
            23.5228,
            23.3304,
            21.5407,
            21.5189,
            20.905,
            15.7419,
            19.6707,
            16.1876,
            13.1474,
            24.0626,
            29.0303,
            35.7182,
            38.5296,
            37.8702,
            37.547,
            37.0002,
            32.7774,
            28.4163,
            35.8191,
            53.928,
            72.6293,
            120.438,
            166.025,
            206.11,
            228.96,
            218.244,
            165.372,
            110.792,
            71.3345,
            37.9268,
            22.7587,
            16.0656,
            12.7644,
            13.502,
            14.5496,
            10.7857,
            10.0505,
            11.3241,
            9.60657,
            9.72365,
            9.27794,
            7.37611,
            8.8833,
            7.52296,
            7.95232,
            10.069,
            7.18333,
            5.32047,
            8.01455,
            4.33277,
            9.96764,
            12.1203,
            11.7784,
            11.5926,
            11.7168,
            11.4474,
            10.5293,
            11.976,
            13.0999,
            8.0363,
            9.29686,
            6.58357,
            11.4431,
            8.79285,
            12.1497,
            14.5496,
            19.0331,
            27.5683,
            35.3376,
            51.7035,
            71.0559,
            81.5269,
            74.4184,
            68.4662,
            52.9648,
            36.3063,
            23.8301,
            26.6229,
            35.582,
            45.2922,
            62.9096,
            80.2681,
            98.4087,
            109.54,
            118.422,
            128.42,
            128.219,
            136.666,
            132.282,
            112.781,
            101.031,
            87.2229,
            66.6206,
            52.39,
            40.5976,
            30.5159,
            28.901,
            24.0952,
            22.1765,
            27.0966,
            37.2197,
            48.2529,
            56.794,
            66.3068,
            69.1172,
            61.5212,
            51.4013,
            42.7223,
            40.8765,
            35.0589,
            33.7568,
            35.9076,
            35.9453,
            35.2006,
            35.544,
            35.3895,
            34.6078,
            33.8059,
            39.936,
            40.1345,
            38.0929,
            44.5076,
            47.2415,
            52.3571,
            54.7732,
            55.9255,
            62.5838,
            64.1845,
            67.1995,
            77.3627,
            75.5993,
            86.8864,
            79.7424,
            81.9274,
            81.3587,
            81.0966,
            77.4354,
            62.4894,
            62.4531,
            54.7742,
            45.1376,
            35.6165,
            27.0064,
            20.4815,
            14.3343,
            13.7135,
            10.6852,
            10.7218,
            13.9322,
            16.624,
            23.4154,
            36.4739,
            45.5341,
            57.8101,
            68.9603,
            74.6021,
            71.1948,
            70.4781,
            62.5809,
            49.2601,
            47.8177,
            33.6148,
            30.3549,
            25.1214,
            20.5157,
            16.3915,
            19.2398,
            17.1268,
            15.7957,
            17.6662,
            16.4615,
            16.2963,
            16.0542,
            14.0409,
            13.0108,
            10.9113,
            10.9113,
            13.8812,
            14.0915,
            18.3209,
            29.9016,
            38.6827,
            51.765,
            72.9808,
            92.4098,
            101.915,
            96.6257,
            82.3246,
            66.013,
            46.6188,
            34.9395,
            25.1859,
            23.2817,
            20.8093,
            20.3702,
            22.403,
            22.0139,
            24.3733,
            27.2285,
            23.8594,
            22.801,
            20.8514,
            13.9345,
            11.0573,
            10.2991,
            8.58014,
            9.8118,
            7.39168,
            6.24954,
            5.14301,
            5.20942,
            3.02737,
            3.89047,
            4.06525,
            3.87695,
            2.83292,
            3.30318,
            3.38417,
            2.33705,
            3.34042,
            3.61914,
            4.64948,
            6.8409,
            8.68184,
            10.8319,
            13.419,
            15.739,
            16.8995,
            11.5397,
            8.58753,
            5.1955,
            4.35104,
            2.76066,
            3.10244,
            1.99858,
            1.50539,
            3.54854,
            3.80232,
            3.73813,
            4.54334,
            5.66468,
            7.02861,
            9.53568,
            12.3174,
            23.1596,
            24.1856,
            30.3573,
            31.8282,
            33.2509,
            36.2112,
            35.229,
            38.4932,
            42.3506,
            42.291,
            39.5627,
            26.6781,
            15.6809,
            9.42928,
            5.76458,
            2.88391,
            3.41673,
            2.57839,
            2.56886,
            3.33472,
            5.05894,
            4.96475,
            5.33522,
            6.54925,
            9.3647,
            12.8763,
            19.6969,
            24.604,
            32.4165,
            41.6391,
            71.7373,
            105.105,
            139.769,
            175.764,
            192.81,
            185.337,
            149.461,
            105.491,
            69.2103,
            40.5856,
            26.5494,
            16.2819,
            8.89778,
            7.37485,
            5.18688,
            4.07724,
            3.79244,
            3.36663,
            3.20676,
            3.93963,
            3.06512,
            3.05581,
            4.45663,
            5.90649,
            7.29771,
            9.33944,
            11.9588,
            17.6493,
            30.4424,
            46.4586,
            68.263,
            103.979,
            128.037,
            148.035,
            143.577,
            130.293,
            91.6291,
            60.8943,
            38.5139,
            26.2089,
            21.2476,
            23.1275,
            23.0148,
            27.0495,
            30.7184,
            40.079,
            62.6967,
            83.24,
            117.732,
            158.077,
            202.26,
            205.011,
            195.964,
            171.859,
            139.968,
            129.148,
            127.279,
            136.172,
            152.731,
            171.121,
            196.467,
            230.862,
            236.145,
            255.974,
            307.41,
            357.645,
            401.69,
            438.216,
            426.082,
            361.44,
            270.3,
            214.451,
            155.693,
            120.995,
            98.0792,
            81.4097,
            61.4513,
            54.1007,
            45.9387,
            39.9043,
            36.4242,
            30.2215,
            27.6009,
            25.3693,
            23.049,
            18.9554,
            18.2517,
            17.8428,
            15.2692,
            16.1288,
            14.1026,
            12.9198,
            13.7001,
            13.0623,
            12.5915,
            11.2521,
            8.63054,
            10.7526,
            9.98317,
            9.15762,
            8.86059,
            8.13246,
            7.50901,
            9.40426,
            9.24524,
            7.29895,
            6.67827,
            8.39097,
            6.98835,
            7.11795,
            8.38794,
            7.45967,
            8.84127,
            9.27527,
            10.2851,
            8.67407,
            8.64748,
            11.6954,
            13.3745,
            13.233,
            12.2698,
            14.1248,
            16.7556,
            17.7297,
            21.5634,
            23.1801,
            27.8229,
            27.0313,
            28.179,
            27.6403,
            28.2116,
            23.9292,
            21.5682,
            16.0991,
            12.8073,
            12.4374,
            9.96744,
            10.1482,
            11.649,
            13.6983,
            16.5649,
            18.0174,
            23.6672,
            37.5793,
            48.6486,
            68.0746,
            106.617,
            142.228,
            186.861,
            200.608,
            204.088,
            167.493,
            127.941,
            86.5505,
            54.4622,
            39.8733,
            32.5985,
            30.0894,
            31.0905,
            30.5669,
            27.3052,
            23.387,
            19.2491,
            15.1667,
            13.6685,
            14.5497,
            17.6029,
            22.2137,
            25.4566,
            32.6901,
            34.6416,
            36.0272,
            35.3299,
            32.5639,
            27.1802,
            24.4536,
            22.3637,
            21.3585,
            23.635,
            23.5678,
            26.8663,
            28.6907,
            31.349,
            35.3205,
            40.7643,
            41.8988,
            44.4465,
            45.4594,
            48.735,
            50.1222,
            50.9515,
            52.1897,
            53.9047,
            57.0712,
            64.5511,
            64.3238,
            62.5733,
            56.14,
            49.5105,
            40.5284,
            39.4949,
            37.7177,
            39.073,
            35.4426,
            31.4186,
            24.2292,
            22.4446,
            21.3573,
            20.205,
            17.371,
            15.0904,
            13.7355,
            11.4031,
            11.3966,
            11.205,
            11.2507,
            12.6452,
            15.2838,
            18.1968,
            21.7963,
            26.1084,
            32.2101,
            37.3834,
            36.4653,
            33.7621,
            28.7876,
            26.4609,
            26.0403,
            26.4108,
            34.6278,
            40.369,
            44.7659,
            48.3992,
            46.762,
            43.1498,
            42.6012,
            39.0985,
            39.0984,
            40.9276,
            46.7414,
            54.9624,
            62.0784,
            70.1319,
            80.9015,
            82.4545,
            73.8272,
            69.6058,
            64.1819,
            57.7172,
            50.5025,
            48.59,
            42.4604,
            38.1565,
            34.3121,
            29.0586,
            24.7717,
            20.3769,
            16.12,
            14.9083,
            14.5396,
            16.2426,
            16.9549,
            18.8022,
            19.335,
            20.3021,
            18.7427,
            16.0016,
            12.5221,
            9.74109,
            8.43827,
            6.7568,
            5.74215,
            5.22835,
            7.94662,
            9.62849,
            10.9298,
            14.7341,
            19.6046,
            29.1498,
            41.5738,
            55.8062,
            69.4169,
            79.3574,
            86.3351,
            89.8906,
            88.5084,
            82.4239,
            74.3935,
            57.5407,
            44.0695,
            28.0559,
            22.4336,
            16.888,
            13.8265,
            12.9452,
            14.7264,
            16.7766,
            20.4816,
            28.8048,
            36.8065,
            46.1899,
            57.3158,
            64.2491,
            69.8138,
            69.9125,
            69.092,
            70.5058,
            71.9648,
            71.7977,
            65.1122,
            60.2976,
            53.0,
            45.8758,
            42.7825,
            44.6573,
            46.201,
            52.5559,
            54.4072,
            51.7537,
            44.9271,
            36.8747,
            30.5813,
            27.4773,
            26.8048,
            27.1789,
            31.931,
            32.2115,
            34.0768,
            35.324,
            31.19,
            25.0073,
            18.5449,
            13.8252,
            11.8179,
            12.4249,
            13.5291,
            15.5545,
            19.8138,
            24.9679,
            31.8367,
            36.5132,
            41.2857,
            51.6776,
            61.097,
            64.4073,
            67.6049,
            69.772,
            63.8199,
            56.7087,
            55.0995,
            55.4501,
            62.1092,
            72.0786,
            87.6341,
            104.984,
            128.45,
            158.266,
            169.695,
            178.862,
            173.47,
            159.196,
            137.019,
            106.848,
            93.8804,
            81.1809,
            67.6095,
            68.0062,
            69.2599,
            67.6049,
            75.6044,
            81.5452,
            91.5698,
            96.8117,
            107.687,
            112.902,
            108.736,
            95.1758,
            86.683,
            72.1415,
            58.9717,
            45.6463,
            34.6891,
            28.4707,
            21.9148,
            18.4428,
            15.592,
            14.4375,
            14.4862,
            15.3196,
            20.1605,
            25.1315,
            30.7646,
            35.0033,
            36.1549,
            34.2841,
            32.2414,
            27.2551,
            23.1333,
            16.5118,
            15.0886,
            13.2247,
            14.9065,
            15.1071,
            16.7253,
            16.7112,
            15.8366,
            15.0048,
            14.6091,
            15.0009,
            13.9612,
            16.0143,
            20.4823,
            26.9325,
            36.1329,
            49.9822,
            59.2002,
            77.055,
            97.4315,
            116.461,
            125.53,
            124.616,
            110.774,
            93.3713,
            71.3904,
            59.0609,
            57.331,
            59.8227,
            70.2144,
            90.3269,
            108.821,
            128.06,
            140.458,
            150.059,
            154.902,
            150.661,
            148.523,
            150.652,
            151.865,
            161.573,
            181.287,
            199.014,
            219.044,
            227.793,
            215.719,
            176.817,
            133.797,
            88.4042,
            60.4573,
            40.5163,
            28.3417,
            21.5288,
            16.6197,
            14.2047,
            12.9676,
            14.0687,
            15.6958,
            18.6806,
            24.3165,
            31.4941,
            41.1407,
            51.2059,
            63.1362,
            74.8386,
            79.1964,
            84.9002,
            81.6994,
            84.7462,
            79.4357,
            65.5695,
            52.0502,
            40.9347,
            35.5765,
            36.9687,
            42.9781,
            54.3608,
            61.6462,
            63.6721,
            58.7373,
            55.0488,
            38.2121,
            30.3777,
            21.4604,
            15.3089,
            12.8977,
            11.3717,
            9.82627,
            9.62955,
            10.0942,
            11.546,
            14.0222,
            17.5961,
            21.718,
            22.5728,
            25.4655,
            30.3011,
            33.5058,
            37.3506,
            44.5792,
            46.354,
            47.9008,
            48.0304,
            43.2487,
            38.4676,
            34.3889,
            29.967,
            28.4422,
            27.814,
            27.5958,
            28.9403,
            31.1015,
            32.0045,
            32.4839,
            32.0803,
            28.7637,
            26.9077,
            24.0424,
            18.0932,
            17.7076,
            16.2202,
            14.2584,
            12.3443,
            13.2881,
            13.3429,
            11.3097,
            11.6129,
            11.7432,
            11.6881,
            10.9387,
            11.0179,
            10.4478,
            10.2777,
            10.4989,
            11.0575,
            11.2747,
            11.1131,
            10.4288,
            10.0148,
            10.1874,
            9.65663,
            8.91439,
            9.40866,
            9.61732,
            11.5463,
            14.0728,
            15.8448,
            17.6585,
            20.7297,
            20.7043,
            21.9632,
            25.262,
            25.1537,
            26.959,
            26.3795,
            24.2548,
            23.6653,
            22.1668,
            20.5437,
            20.1548,
            18.854,
            18.9832,
            20.2214,
            18.7159,
            17.255,
            14.9662,
            11.1713,
            8.11443,
            4.98248,
            4.46242,
            3.92474,
            3.27867,
            2.81726,
            2.65772,
            2.23256,
            2.14764,
            2.3201,
            2.56295,
            3.00433,
            3.44866,
            4.60944,
            5.53806,
            7.84243,
            9.57548,
            10.7736,
            11.4444,
            10.5589,
            10.0765,
            9.4958,
            9.32376,
            9.15099,
            10.0925,
            11.9432,
            12.7866,
            10.3359,
            8.23571,
            5.8425,
            4.19991,
            2.58211,
            2.07389,
            1.95255,
            3.08331,
            3.44716,
            3.56557,
            3.00845,
            3.60375,
            2.94796,
            2.95213,
            2.59471,
            3.98747,
            4.91534,
            2.90413,
            2.59709,
            2.21085,
            1.6539,
            1.23964,
            0.975811,
            1.76222,
            2.1738,
            2.99656,
            3.82269,
            4.63249,
            3.63568,
            5.26406,
            5.3393,
            5.88365,
            6.26871,
            5.99331,
            6.75634,
            9.15964,
            10.0551,
            15.2473,
            18.5557,
            22.5539,
            24.5865,
            27.6369,
            28.9996,
            27.3542,
            24.4209,
            23.0168,
            22.3595,
            22.1707,
            22.6277,
            25.7404,
            33.7545,
            41.5207,
            51.5968,
            63.7771,
            76.4652,
            86.0492,
            101.255,
            116.973,
            104.96,
            115.865,
            115.396,
            100.745,
            91.2623,
            79.0765,
            65.2901,
            50.5058,
            34.8412,
            25.5728,
            21.4285,
            19.5224,
            16.6361,
            15.9584,
            16.2775,
            16.4341,
            16.2434,
            17.1629,
            17.8899,
            18.75,
            22.8074,
            25.7684,
            35.369,
            45.7875,
            61.4597,
            73.9419,
            82.2572,
            84.4853,
            83.6326,
            72.5678,
            56.2838,
            43.5439,
            28.6047,
            21.8801,
            17.6466,
            12.9861,
            11.3521,
            9.90572,
            8.28548,
            7.41636,
            6.05532,
            5.41292,
            4.68353,
            4.67636,
            4.76931,
            4.84619,
            5.36869,
            7.10854,
            8.68684,
            10.7521,
            14.2129,
            22.3984,
            32.347,
            38.7883,
            50.9404,
            67.2523,
            75.3491,
            79.0023,
            78.8429,
            68.1537,
            58.6076,
            53.0576,
            46.6604,
            43.5802,
            41.9921,
            43.9537,
            45.3058,
            46.8639,
            48.7891,
            49.3346,
            46.3865,
            43.4889,
            37.1022,
            30.5788,
            24.2862,
            17.2821,
            10.2041,
            6.45923,
            4.91538,
            3.87274,
            2.9728,
            2.73938,
            3.54181,
            4.67827,
            4.8859,
            5.19242,
            5.59805,
            6.34173,
            7.36462,
            8.43843,
            9.08343,
            11.0014,
            13.7118,
            17.2286,
            20.6346,
            23.8791,
            25.9023,
            27.7697,
            26.0618,
            25.8084,
            26.5716,
            27.7315,
            28.2529,
            30.0241,
            31.0145,
            30.6182,
            28.027,
            23.9484,
            20.4013,
            15.9788,
            11.9901,
            9.37132,
            8.6296,
            7.99202,
            7.6039,
            7.25232,
            6.95979,
            7.00788,
            7.1551,
            9.45925,
            10.1315,
            12.2469,
            14.3117,
            17.4732,
            19.5136,
            21.426,
            20.7583,
            18.2886,
            19.9125,
            19.2625,
            19.0121,
            18.9719,
            20.0446,
            21.2783,
            21.4371,
            20.7023,
            19.8648,
            16.6751,
            13.2877,
            11.3612,
            10.3367,
            9.10753,
            10.4323,
            12.3061,
            14.6181,
            17.146,
            20.5707,
            21.7627,
            23.1095,
            23.7184,
            21.8131,
            17.7394,
            14.1867,
            9.51738,
            7.91198,
            6.97965,
            6.28215,
            6.32115,
            6.87822,
            8.71128,
            10.9537,
            12.6855,
            15.6339,
            17.8686,
            20.4641,
            22.2656,
            25.2367,
            23.8035,
            23.0935,
            20.3305,
            22.3656,
            22.118,
            24.4538,
            27.7729,
            33.7508,
            38.2245,
            42.0538,
            48.6934,
            55.6029,
            58.8324,
            65.7495,
            72.9045,
            78.6005,
            81.4426,
            82.2093,
            83.2632,
            76.3044,
            74.0855,
            66.6195,
            62.1432,
            55.9202,
            50.9494,
            48.3001,
            45.3613,
            43.5629,
            41.6591,
            41.2272,
            38.3499,
            35.012,
            32.8963,
            29.8507,
            26.4215,
            24.0354,
            21.1584,
            19.4888,
            17.3478,
            14.387,
            10.88,
            9.69943,
            8.41876,
            7.36393,
            6.73065,
            6.3001,
            6.38319,
            6.60256,
            8.52981,
            10.2981,
            10.9126,
            12.9284,
            15.2555,
            15.1186,
            15.1852,
            15.1863,
            14.0597,
            14.8437,
            14.8177,
            16.1706,
            17.6765,
            18.1865,
            17.8254,
            17.5609,
            17.9615,
            19.7955,
            20.5996,
            22.9149,
            28.0615,
            32.5462,
            37.1536,
            41.4431,
            45.473,
            49.4483,
            51.2205,
            51.4911,
            53.4708,
            48.9919,
            43.5477,
            39.2114,
            33.8609,
            29.3755,
            25.3663,
            23.7597,
            21.1737,
            23.0083,
            23.813,
            25.6362,
            25.6476,
            26.7015,
            27.9837,
            28.9548,
            30.9232,
            31.382,
            34.0955,
            34.5462,
            36.0452,
            34.9714,
            35.1686,
            34.1564,
            34.6758,
            36.9882,
            41.2491,
            46.0514,
            50.7092,
            53.8725,
            58.6412,
            58.4637,
            52.3479,
            48.5178,
            43.5549,
            35.9324,
            30.271,
            27.6184,
            28.385,
            29.5904,
            32.5585,
            32.8536,
            35.8258,
            37.5042,
            39.804,
            40.408,
            42.794,
            38.9326,
            34.425,
            30.2894,
            24.3934,
            18.8762,
            15.4119,
            11.6224,
            11.8376,
            9.20246,
            8.80916,
            8.30147,
            7.8627,
            8.00621,
            8.46425,
            10.36,
            13.7477,
            15.5213,
            17.6937,
            19.2117,
            18.3476,
            18.3328,
            16.845,
            15.8534,
            14.922,
            14.0492,
            13.9673,
            14.5039,
            15.6299,
            15.2495,
            15.2648,
            16.4051,
            17.3148,
            17.3118,
            17.9836,
            19.0226,
            20.4919,
            21.4924,
            19.9372,
            21.2293,
            20.3842,
            18.8223,
            16.5566,
            17.6974,
            15.6096,
            17.3329,
            11.408,
            17.0197,
            15.2749,
            14.7101,
            13.1936,
            10.7279,
            9.23144,
            7.73161,
            6.4687,
            6.506,
            8.11773,
            9.50986,
            11.3903,
            14.5735,
            20.2121,
            24.4544,
            31.1662,
            38.5436,
            43.2812,
            46.2447,
            47.7423,
            45.0908,
            40.4931,
            31.0497,
            25.2183,
            16.5615,
            12.9765,
            8.18785,
            6.94222,
            6.67911,
            6.54158,
            7.28096,
            8.02494,
            9.0499,
            9.76206,
            9.34946,
            10.1766,
            10.1644,
            9.81037,
            9.87617,
            10.1979,
            10.7202,
            11.8099,
            12.4468,
            12.2457,
            12.0083,
            11.9172,
            11.2671,
            10.9464,
            11.1108,
            10.9666,
            10.729,
            9.57289,
            8.48539,
            6.88023,
            5.96414,
            6.17927,
            6.24235,
            6.71185,
            7.74296,
            8.50946,
            8.60331,
            9.54237,
            10.3954,
            10.9344,
            13.4928,
            16.2401,
            20.6435,
            29.1625,
            38.294,
            40.5994,
            45.1445,
            44.906,
            42.9783,
            37.1193,
            34.0628,
            31.3566,
            28.3338,
            27.2607,
            24.9049,
            20.8299,
            18.167,
            15.9941,
            13.9256,
            12.0215,
            12.1502,
            12.4862,
            14.6308,
            15.7817,
            19.9718,
            23.3453,
            29.3053,
            34.8894,
            38.296,
            40.6929,
            40.451,
            39.2616,
            35.1944,
            29.2206,
            25.8636,
            22.1918,
            20.7026,
            19.1231,
            19.7074,
            19.0541,
            17.1684,
            14.6504,
            12.484,
            11.4195,
            10.6619,
            10.5615,
            10.1927,
            11.0171,
            13.0632,
            14.6766,
            17.0831,
            19.8566,
            24.1209,
            26.7556,
            26.896,
            25.075,
            21.3177,
            17.9402,
            13.4163,
            10.5592,
            9.11078,
            8.2015,
            8.45372,
            10.0346,
            10.8992,
            11.6467,
            11.9863,
            12.1446,
            10.5247,
            9.65833,
            8.99014,
            9.86117,
            10.2919,
            10.874,
            13.2397,
            15.2101,
            16.0625,
            15.1983,
            15.2595,
            13.5081,
            11.0832,
            8.53634,
            6.82243,
            5.5528,
            4.87711,
            5.20105,
            5.5918,
            6.19603,
            7.5592,
            8.90749,
            10.5763,
            11.8987,
            12.8307,
            11.5342,
            10.4743,
            8.08759,
            6.14038,
            4.58458,
            3.65858,
            4.03138,
            4.30392,
            5.37808,
            6.86637,
            8.88412,
            11.1662,
            13.2924,
            16.0285,
            20.3909,
            22.1741,
            21.6917,
            21.4472,
            18.735,
            15.1678,
            11.7391,
            8.6967,
            6.39802,
            5.96849,
            5.95598,
            6.3719,
            6.84203,
            8.65349,
            10.9751,
            12.6638,
            14.0734,
            18.2669,
            22.9389,
            26.4767,
            30.8663,
            35.9261,
            39.8639,
            43.0192,
            44.1373,
            44.0264,
            40.1605,
            33.7964,
            24.8569,
            18.8751,
            15.1009,
            12.6676,
            12.3825,
            12.3803,
            12.8615,
            14.649,
            17.5239,
            21.0117,
            24.9272,
            30.14,
            35.0276,
            41.4432,
            44.8909,
            47.696,
            50.736,
            50.989,
            48.1818,
            46.5865,
            40.4357,
            35.4026,
            30.0205,
            27.4606,
            21.2542,
            19.2261,
            16.8362,
            14.8895,
            13.4944,
            13.0943,
            12.1507,
            11.9223,
            11.9986,
            12.1228,
            13.2197,
            13.8567,
            14.2255,
            17.2152,
            20.702,
            22.9486,
            28.9677,
            38.2472,
            50.0232,
            54.5596,
            61.5865,
            66.8231,
            69.5751,
            64.2069,
            49.5797,
            36.157,
            25.6922,
            11.9732,
            7.29554,
            5.62434,
            5.82262,
            6.47607,
            7.28948,
            8.86411,
            9.53638,
            10.9837,
            11.8056,
            11.761,
            12.421,
            13.9696,
            16.1327,
            20.3171,
            22.798,
            27.4593,
            30.8194,
            33.324,
            35.3201,
            36.3946,
            37.7143,
            40.7356,
            44.9022,
            52.1494,
            62.7845,
            66.038,
            69.3475,
            70.0863,
            67.6825,
            64.5558,
            57.6029,
            46.2915,
            37.9163,
            30.9031,
            22.6707,
            18.5092,
            16.632,
            16.1675,
            18.8837,
            19.308,
            20.6002,
            22.221,
            22.4291,
            20.2391,
            19.0579,
            15.3035,
            12.9595,
            9.29001,
            8.04439,
            9.17506,
            10.6903,
            11.8031,
            13.4869,
            13.7797,
            14.3544,
            13.7284,
            12.8192,
            11.5831,
            11.7366,
            11.6975,
            12.26,
            15.673,
            20.3516,
            26.4215,
            31.4752,
            36.8224,
            39.5158,
            40.8884,
            41.2259,
            40.2869,
            38.3413,
            38.9789,
            38.5502,
            39.6261,
            39.0738,
            39.0179,
            38.9032,
            39.3283,
            39.8724,
            40.5219,
            40.8124,
            40.0701,
            40.0123,
            37.1534,
            32.56,
            29.0423,
            25.5254,
            24.5578,
            28.7588,
            35.3438,
            46.0962,
            54.9041,
            65.6718,
            71.3713,
            76.0542,
            73.1097,
            61.8736,
            53.4795,
            42.6399,
            33.4928,
            26.763,
            22.1274,
            19.6188,
            16.8978,
            14.6624,
            13.6886,
            12.6436,
            14.3753,
            15.761,
            16.099,
            15.8795,
            14.6079,
            12.4515,
            8.15157,
            4.31245,
            2.79339,
            2.52162,
            2.90755,
            3.90114,
            4.75009,
            5.7257,
            6.87861,
            8.33597,
            9.32769,
            11.0405,
            12.2152,
            12.9993,
            13.6762,
            15.0828,
            13.9322,
            13.7674,
            12.9585,
            13.1329,
            13.4599,
            14.7302,
            16.9587,
            23.4295,
            28.0567,
            32.8922,
            34.9545,
            34.3872,
            33.3121,
            27.98,
            20.4019,
            15.5568,
            9.74812,
            7.75102,
            6.83939,
            5.76102,
            5.55978,
            5.3779,
            5.77698,
            6.42685,
            7.50433,
            8.22335,
            11.3417,
            14.6037,
            21.2608,
            25.646,
            30.2337,
            34.0637,
            36.5439,
            38.0681,
            35.0102,
            28.2795,
            19.671,
            14.1249,
            12.0632,
            12.8931,
            15.2757,
            17.6871,
            18.5722,
            19.4603,
            19.0383,
            16.5904,
            15.0923,
            11.2729,
            10.8412,
            12.8857,
            18.0287,
            23.1981,
            28.1803,
            33.6918,
            36.3263,
            36.3589,
            34.1543,
            30.4713,
            24.5581,
            21.6283,
            18.9983,
            16.4164,
            13.3442,
            10.1132,
            7.31273,
            5.6758,
            4.34524,
            4.15923,
            4.00732,
            4.32006,
            4.79095,
            4.74509,
            5.41989,
            6.94239,
            8.80171,
            12.2074,
            17.0749,
            20.5606,
            25.9458,
            28.3275,
            29.2391,
            29.3561,
            25.1099,
            18.8025,
            13.9202,
            12.9659,
            13.9657,
            16.289,
            18.8062,
            20.0446,
            21.5231,
            22.4272,
            23.1334,
            24.6841,
            24.5373,
            24.6614,
            25.3471,
            25.8913,
            25.8508,
            25.218,
            23.5876,
            19.9714,
            14.8561,
            11.2092,
            10.9415,
            12.134,
            14.1319,
            16.5508,
            20.0684,
            21.6949,
            23.6653,
            22.8608,
            21.2371,
            19.2753,
            16.5747,
            13.8635,
            13.009,
            11.9454,
            12.156,
            14.4352,
            16.0814,
            17.3468,
            18.6271,
            19.0725,
            17.7902,
            13.4348,
            11.6865,
            12.7496,
            14.5007,
            17.2038,
            19.0254,
            20.709,
            23.5758,
            28.483,
            28.8998,
            30.0326,
            29.47,
            30.4684,
            24.4324,
            14.1503,
            8.93851,
            8.75283,
            9.527,
            11.1546,
            15.6063,
            19.0066,
            22.6919,
            25.9357,
            28.2581,
            26.9561,
            24.9301,
            22.9019,
            21.0961,
            19.5658,
            19.3067,
            21.0,
            25.4249,
            28.4846,
            30.2989,
            30.3362,
            30.4649,
            26.0763,
            21.8893,
            19.65,
            19.6593,
            18.566,
            17.9201,
            16.79,
            12.8685,
            10.6956,
            9.59727,
            9.72879,
            9.46205,
            9.84462,
            9.31031,
            8.79438,
            9.26753,
            9.87133,
            8.90855,
            9.04863,
            8.11247,
            8.4517,
            9.51457,
            11.6204,
            14.4946,
            18.0468,
            23.4454,
            26.8946,
            31.0017,
            33.7836,
            35.5032,
            34.0716,
            29.9993,
            25.2678,
            22.4373,
            21.2385,
            23.215,
            24.9916,
            30.3691,
            36.4767,
            42.5289,
            50.5122,
            55.9188,
            57.6912,
            60.0469,
            61.6864,
            56.0065,
            43.821,
            27.1939,
            18.3725,
            16.8159,
            16.4463,
            15.3784,
            15.4954,
            17.1462,
            20.2348,
            22.9049,
            25.404,
            27.4129,
            25.4981,
            21.3622,
            18.7948,
            18.4541,
            19.2388,
            20.1866,
            20.2967,
            19.1695,
            16.9888,
            12.2896,
            8.85336,
            6.89363,
            6.35677,
            5.83329,
            4.67743,
            3.54893,
            3.09839,
            2.62581,
            2.31975,
            2.65125,
            3.40939,
            4.56898,
            5.77326,
            6.68465,
            7.67286,
            8.34647,
            9.41834,
            9.6773,
            9.06736,
            7.8822,
            6.99955,
            6.56804,
            6.91648,
            8.32823,
            10.9061,
            14.4557,
            17.9448,
            20.3322,
            23.1323,
            22.8351,
            18.3386,
            12.7433,
            10.2173,
            9.89717,
            11.4663,
            14.6317,
            19.196,
            24.2062,
            28.8536,
            32.7924,
            35.9568,
            32.7945,
            22.6606,
            15.8143,
            13.8458,
            15.4735,
            17.3312,
            19.7449,
            20.3731,
            17.0544,
            11.1579,
            6.51404,
            5.3775,
            6.07614,
            6.98266,
            8.73301,
            10.7638,
            12.9485,
            15.2375,
            18.9208,
            22.8682,
            27.5723,
            32.1081,
            35.6531,
            36.6398,
            37.6273,
            37.9931,
            37.4897,
            38.2235,
            37.9401,
            41.4531,
            46.1412,
            46.957,
            41.3005,
            25.2446,
            14.8639,
            10.7808,
            11.3544,
            13.4036,
            14.3717,
            14.5032,
            14.447,
            16.8684,
            18.1231,
            18.8503,
            19.1121,
            17.0859,
            11.0222,
            7.36109,
            7.02035,
            8.34357,
            9.97053,
            12.2326,
            14.6659,
            16.5839,
            17.5935,
            19.7871,
            22.7304,
            19.9005,
            12.628,
            5.61704,
            4.50028,
            4.3069,
            4.22059,
            5.2406,
            6.72133,
            8.68659,
            10.6639,
            12.3587,
            14.032,
            16.4637,
            17.6699,
            18.688,
            18.0438,
            17.9615,
            18.1553,
            19.8233,
            23.4235,
            26.9872,
            29.5454,
            34.0694,
            37.4884,
            31.9623,
            20.8461,
            13.845,
            10.4499,
            10.1299,
            10.6104,
            11.5385,
            12.3767,
            13.9342,
            15.061,
            17.4385,
            18.2636,
            16.3319,
            13.5941,
            12.2468,
            13.3298,
            15.3154,
            19.2507,
            24.5869,
            32.1869,
            40.3366,
            47.2997,
            53.0609,
            55.8765,
            49.6004,
            43.3325,
            37.653,
            35.1733,
            30.8271,
            28.2176,
            28.5362,
            31.5766,
            33.8263,
            31.7145,
            27.3274,
            29.7263,
            32.1259,
            32.3413,
            26.3424,
            20.5459,
            18.3595,
            18.2499,
            19.9142,
            19.1755,
            17.3669,
            14.5383,
            13.6871,
            12.8104,
            13.6193,
            15.3943,
            18.3438,
            19.2202,
            20.4056,
            22.8964,
            26.651,
            34.9788,
            41.093,
            45.9006,
            44.6898,
            38.4845,
            33.8132,
            29.8999,
            31.4333,
            30.1989,
            25.8244,
            21.1198,
            15.6197,
            9.35283,
            5.06603,
            3.70643,
            4.18332,
            4.44676,
            5.12736,
            6.84445,
            8.7896,
            9.48475,
            11.2952,
            14.0074,
            16.0782,
            19.332,
            22.8478,
            24.8088,
            27.6666,
            31.7757,
            33.3769,
            35.0577,
            37.5748,
            39.2655,
            33.6253,
            28.3665,
            18.9874,
            14.7739,
            13.4302,
            12.5336,
            11.8581,
            11.7055,
            13.6837,
            15.0652,
            16.9429,
            19.2911,
            20.1421,
            18.9837,
            17.7575,
            18.0039,
            18.1767,
            20.2541,
            22.7916,
            23.6702,
            21.1168,
            20.6022,
            17.471,
            13.0585,
            10.4124,
            10.0957,
            11.82,
            16.3808,
            22.533,
            24.3821,
            27.4459,
            29.1909,
            30.4656,
            28.0879,
            23.5459,
            19.6687,
            16.5175,
            13.8222,
            14.4033,
            15.0731,
            17.2848,
            14.1965,
            9.74455,
            7.02393,
            6.43667,
            7.27146,
            9.8349,
            13.5377,
            17.0398,
            23.1099,
            33.8489,
            44.094,
            51.6351,
            54.9594,
            57.7176,
            54.814,
            43.0202,
            27.8214,
            12.9427,
            9.15442,
            8.88353,
            10.8157,
            14.3895,
            20.8068,
            24.9962,
            29.6149,
            33.0449,
            34.3787,
            30.0834,
            26.8373,
            25.7641,
            27.3148,
            30.0516,
            31.8814,
            33.7379,
            34.8318,
            38.6862,
            34.588,
            33.2349,
            31.4971,
            29.603,
            31.1723,
            34.6686,
            34.883,
            28.3994,
            18.9178,
            14.5833,
            14.3651,
            18.8007,
            23.7033,
            27.0152,
            31.1971,
            36.7764,
            33.4998,
            26.5009,
            21.5643,
            21.1538,
            25.5468,
            26.9759,
            27.5447,
            24.7564,
            19.8819,
            14.1167,
            7.57233,
            4.95983,
            3.59376,
            2.56325,
            2.20234,
            2.99475,
            4.28965,
            5.50314,
            7.56622,
            9.70754,
            11.3373,
            12.8379,
            14.2621,
            16.9994,
            20.3733,
            23.1171,
            25.1454,
            26.996,
            30.2077,
            30.5488,
            26.0813,
            17.7638,
            11.841,
            8.16652,
            7.13915,
            6.6541,
            5.28675,
            5.34087,
            5.51428,
            6.67851,
            8.11722,
            9.81368,
            11.0929,
            11.9481,
            12.0908,
            12.0285,
            12.5543,
            12.6554,
            14.3253,
            12.8577,
            9.55682,
            6.89674,
            6.77883,
            7.54414,
            8.29387,
            9.40223,
            10.277,
            11.3983,
            11.1265,
            11.3984,
            11.16,
            11.7522,
            11.5647,
            11.026,
            8.80624,
            7.45702,
            6.57798,
            6.66086,
            6.41594,
            6.08362,
            5.49198,
            5.21916,
            5.47322,
            7.23223,
            9.12386,
            10.7736,
            12.5175,
            14.7325,
            16.4832,
            18.1492,
            18.275,
            19.0022,
            20.868,
            20.5205,
            16.5383,
            12.9783,
            10.2837,
            9.60839,
            9.35789,
            9.33717,
            9.0394,
            11.2993,
            11.9465,
            14.3294,
            17.2162,
            22.0701,
            27.0877,
            29.7273,
            31.5777,
            31.0991,
            27.946,
            23.5835,
            19.5795,
            16.1747,
            13.2556,
            11.8575,
            11.0164,
            10.4846,
            10.8212,
            11.6742,
            11.9652,
            12.6614,
            14.2805,
            15.9947,
            17.6774,
            19.1717,
            19.8236,
            18.4612,
            17.3905,
            16.2317,
            14.5411,
            14.1591,
            16.6795,
            18.7589,
            19.8276,
            22.6089,
            25.4403,
            26.7076,
            28.1089,
            26.1776,
            23.5673,
            19.1172,
            17.8549,
            17.8424,
            18.4528,
            18.3122,
            15.8636,
            15.0202,
            14.048,
            14.6792,
            15.5594,
            15.281,
            13.4835,
            11.878,
            11.5905,
            11.5805,
            11.833,
            12.1954,
            12.7426,
            12.2018,
            12.8101,
            13.1672,
            12.805,
            12.0714,
            12.1827,
            11.8981,
            11.0325,
            8.96023,
            9.07236,
            9.37115,
            10.5311,
            12.0482,
            13.0109,
            13.0039,
            13.565,
            13.4567,
            13.1614,
            12.8256,
            12.283,
            12.4517,
            11.8737,
            9.88595,
            8.23392,
            7.2423,
            7.74943,
            8.69866,
            9.54833,
            10.0938,
            10.2813,
            10.3336,
            9.14472,
            7.36168,
            6.00247,
            5.33419,
            5.16295,
            5.48965,
            6.6729,
            9.20777,
            13.0836,
            16.0616,
            16.8326,
            17.9925,
            18.5544,
            17.523,
            15.5061,
            12.3771,
            11.5281,
            11.0248,
            9.81266,
            9.39712,
            9.87303,
            10.6924,
            11.1861,
            11.7344,
            11.0996,
            9.51638,
            7.60567,
            8.43658,
            9.47065,
            10.4521,
            11.4612,
            11.7877,
            10.9455,
            10.5097,
            10.7991,
            10.7811,
            10.5154,
            9.45827,
            7.98959,
            7.09774,
            6.67565,
            7.75692,
            8.70362,
            9.62792,
            11.5118,
            12.7048,
            12.4733,
            12.6425,
            13.2478,
            13.138,
            10.5074,
            8.72356,
            8.42642,
            7.03493,
            5.6435,
            4.70099,
            5.56367,
            6.76165,
            8.40045,
            10.2742,
            12.4465,
            14.3166,
            15.841,
            16.4536,
            16.7998,
            17.3873,
            16.1137,
            14.9489,
            13.4421,
            14.2539,
            15.4838,
            18.5094,
            19.2746,
            17.9984,
            17.6487,
            16.4032,
            16.2183,
            15.9434,
            16.2451,
            16.8976,
            18.6063,
            20.3792,
            20.9453,
            19.7706,
            18.9734,
            18.1373,
            16.2515,
            14.3428,
            14.5361,
            17.4713,
            19.9638,
            22.1198,
            22.3993,
            19.0843,
            16.8917,
            11.8988,
            8.61898,
            6.40489,
            6.88818,
            7.93381,
            9.37488,
            10.3034,
            10.8444,
            11.6131,
            11.2486,
            10.776,
            8.65427,
            8.3162,
            8.43344,
            8.56927,
            8.38293,
            9.81448,
            10.9179,
            13.4805,
            16.7514,
            19.2979,
            21.5769,
            21.2481,
            20.2572,
            17.888,
            15.5808,
            12.581,
            11.0371,
            11.6394,
            13.0966,
            12.6704,
            11.545,
            9.76593,
            8.70622,
            8.45594,
            7.70537,
            10.0612,
            12.9966,
            16.4855,
            19.6999,
            19.7464,
            19.827,
            18.3538,
            14.905,
            13.1731,
            10.5604,
            10.2114,
            11.1461,
            11.8127,
            12.4697,
            13.1271,
            12.8916,
            12.369,
            12.079,
            11.636,
            12.7673,
            13.3775,
            15.3504,
            18.1038,
            19.7125,
            20.1906,
            20.9499,
            20.9817,
            20.3022,
            18.8511,
            17.5559,
            17.2753,
            17.883,
            21.4399,
            24.2466,
            27.6426,
            28.59,
            28.2552,
            25.604,
            21.8166,
            16.312,
            13.1776,
            10.9558,
            10.6052,
            10.3741,
            11.1004,
            11.3303,
            10.2136,
            9.3536,
            10.896,
            13.0303,
            14.2224,
            14.5784,
            14.2507,
            14.5637,
            12.8068,
            12.3747,
            12.0118,
            11.7898,
            13.1629,
            14.1819,
            13.8294,
            15.5369,
            17.323,
            15.9689,
            17.4304,
            17.3194,
            14.4266,
            12.1093,
            9.02083,
            8.78884,
            6.36109,
            6.27071,
            7.58395,
            9.19686,
            11.4917,
            11.8722,
            12.7672,
            13.6866,
            12.9003,
            12.2303,
            10.9521,
            10.2465,
            10.2288,
            11.1253,
            12.6716,
            15.5429,
            17.8393,
            19.9352,
            20.5961,
            21.48,
            20.9995,
            18.9796,
            14.8998,
            13.1521,
            11.5543,
            10.5565,
            9.92435,
            10.7957,
            12.0385,
            13.8665,
            16.2894,
            17.5293,
            16.7951,
            16.6548,
            16.2589,
            15.3636,
            12.1348,
            12.3456,
            12.4507,
            13.0795,
            13.3628,
            15.1461,
            14.2864,
            14.1641,
            14.0446,
            14.6073,
            12.8754,
            12.1774,
            12.4446,
            11.6947,
            11.3193,
            9.67994,
            9.68104,
            8.66836,
            7.55037,
            6.4047,
            6.90342,
            6.71821,
            7.87774,
            8.84284,
            10.2748,
            11.4068,
            10.5711,
            10.8294,
            9.62912,
            8.63789,
            8.40323,
            7.96368,
            8.03772,
            7.62407,
            8.23254,
            7.6124,
            6.97678,
            6.31252,
            5.49855,
            5.36503,
            4.61077,
            5.52029,
            6.4898,
            7.5781,
            8.33925,
            9.20429,
            10.6915,
            11.3161,
            10.7071,
            10.9671,
            11.7741,
            13.0494,
            13.3033,
            14.7195,
            17.2931,
            19.3651,
            19.0503,
            18.1653,
            17.4646,
            14.2293,
            12.1262,
            11.2386,
            10.9609,
            10.7207,
            11.033,
            11.2472,
            11.2464,
            10.828,
            11.0522,
            9.60495,
            9.30029,
            9.70154,
            8.86028,
            8.78316,
            8.81895,
            8.39902,
            7.9622,
            8.73304,
            9.79755,
            9.65855,
            10.4367,
            11.0373,
            11.5197,
            10.5987,
            11.0934,
            12.2389,
            13.1983,
            14.0241,
            13.7512,
            13.4824,
            12.9346,
            12.155,
            8.61367,
            7.81288,
            8.40843,
            8.14785,
            7.46033,
            8.1939,
            8.92382,
            9.2732,
            10.0324,
            10.7811,
            10.7869,
            11.837,
            11.9256,
            12.3211,
            9.95969,
            9.58998,
            9.75443,
            9.75878,
            10.2579,
            11.7005,
            12.5665,
            12.1363,
            13.4539,
            13.4431,
            10.587,
            9.33667,
            9.6861,
            9.34304,
            8.54282,
            9.74335,
            10.1152,
            10.5738,
            10.4266,
            9.94465,
            9.37862,
            8.72896,
            7.87512,
            8.03352,
            6.94358,
            7.00462,
            6.84099,
            6.04548,
            5.25928,
            4.74872,
            4.1162,
            4.43922,
            4.51482,
            5.10757,
            5.72503,
            6.42656,
            7.55072,
            8.50443,
            7.85212,
            7.62033,
            7.35182,
            6.90558,
            6.57368,
            7.08217,
            8.3373,
            9.05172,
            10.2265,
            10.4487,
            10.3512,
            8.33019,
            7.93637,
            7.31695,
            7.05164,
            7.29348,
            7.85132,
            7.02144,
            7.51201,
            7.45829,
            7.77909,
            8.35107,
            8.45235,
            9.1493,
            9.75695,
            9.8014,
            8.5002,
            8.61054,
            8.20926,
            8.5636,
            8.98867,
            9.15018,
            10.1844,
            9.65891,
            9.23176,
            8.94062,
            7.70144,
            6.8225,
            7.17673,
            6.92953,
            7.22422,
            7.87022,
            8.81131,
            7.96914,
            7.90894,
            6.99423,
            5.66246,
            5.45914,
            5.50863,
            4.9218,
            5.07048,
            5.71923,
            6.21837,
            6.90833,
            7.18698,
            6.92696,
            6.83627,
            6.28479,
            5.86223,
            5.67061,
            6.2441,
            6.5177,
            6.4968,
            7.00178
          ],
          [
            21.398,
            30.462,
            38.51,
            26.242,
            19.62,
            20.375,
            26.671,
            39.845,
            36.731,
            27.297,
            33.821,
            41.743,
            28.591,
            36.156,
            25.214,
            16.278,
            14.472,
            16.925,
            14.812,
            15.697,
            22.975,
            21.463,
            16.328,
            13.058,
            13.537,
            14.837,
            11.107,
            12.879,
            10.876,
            11.081,
            12.053,
            13.552,
            15.697,
            20.4,
            22.282,
            33.871,
            30.065,
            36.636,
            31.879,
            40.82,
            45.613,
            48.846,
            48.89,
            58.486,
            61.816,
            65.211,
            58.329,
            83.566,
            56.646,
            53.474,
            94.267,
            84.033,
            89.0,
            66.526,
            50.42,
            37.904,
            39.904,
            42.334,
            35.512,
            35.846,
            36.644,
            38.853,
            29.948,
            36.677,
            43.268,
            30.291,
            44.421,
            26.794,
            19.354,
            16.952,
            15.782,
            20.366,
            12.083,
            11.904,
            11.69,
            9.621,
            10.003,
            9.964,
            9.668,
            15.783,
            12.886,
            12.213,
            13.783,
            11.568,
            11.081,
            10.055,
            9.742,
            8.37,
            8.416,
            8.554,
            8.402,
            8.859,
            8.637,
            8.878,
            9.23,
            9.602,
            11.365,
            10.527,
            11.76,
            16.025,
            15.283,
            16.393,
            12.887,
            13.403,
            13.438,
            9.762,
            9.425,
            9.344,
            9.118,
            10.177,
            8.992,
            14.69,
            10.463,
            10.494,
            13.514,
            9.987,
            9.486,
            10.253,
            9.774,
            10.077,
            9.748,
            9.941,
            11.174,
            11.221,
            9.802,
            9.296,
            9.632,
            15.198,
            12.786,
            8.723,
            8.49,
            10.517,
            10.448,
            8.546,
            8.741,
            8.765,
            8.268,
            8.922,
            8.341,
            8.092,
            8.2,
            9.061,
            9.496,
            10.374,
            10.931,
            12.216,
            10.26,
            14.313,
            13.519,
            15.317,
            15.339,
            15.351,
            13.003,
            11.563,
            16.179,
            12.277,
            9.834,
            9.267,
            8.426,
            8.119,
            8.937,
            8.843,
            8.186,
            8.921,
            10.127,
            11.841,
            9.969,
            11.665,
            12.643,
            11.905,
            10.871,
            14.047,
            11.921,
            22.024,
            14.468,
            12.45,
            12.141,
            12.643,
            12.628,
            15.757,
            18.728,
            11.612,
            12.888,
            16.754,
            16.75,
            11.163,
            10.122,
            11.119,
            7.98,
            8.006,
            8.444,
            9.556,
            8.273,
            13.143,
            9.464,
            9.565,
            9.66,
            11.177,
            10.371,
            9.489,
            10.413,
            9.614,
            9.763,
            10.795,
            10.637,
            13.582,
            14.07,
            12.691,
            29.216,
            17.798,
            25.713,
            24.157,
            25.553,
            37.805,
            36.031,
            35.402,
            45.195,
            33.101,
            39.285,
            37.014,
            44.887,
            46.873,
            42.945,
            42.862,
            30.472,
            27.368,
            15.13,
            13.999,
            12.16,
            11.749,
            11.523,
            10.546,
            14.925,
            17.225,
            24.71,
            37.905,
            58.913,
            52.697,
            57.917,
            61.347,
            42.686,
            38.36,
            24.927,
            31.022,
            17.874,
            24.812,
            13.187,
            19.321,
            21.898,
            11.619,
            9.11,
            8.84,
            9.044,
            9.078,
            8.272,
            9.416,
            8.928,
            8.874,
            8.081,
            12.607,
            19.051,
            15.267,
            21.916,
            27.507,
            41.695,
            32.614,
            30.29,
            24.013,
            17.584,
            19.233,
            21.853,
            19.766,
            17.909,
            13.343,
            18.824,
            10.028,
            9.622,
            11.936,
            13.305,
            8.22,
            8.193,
            7.777,
            7.133,
            7.22,
            8.737,
            9.323,
            12.604,
            12.102,
            12.928,
            16.43,
            18.086,
            17.743,
            24.49,
            23.364,
            21.372,
            29.086,
            19.756,
            30.03,
            32.059,
            30.377,
            21.469,
            17.485,
            18.827,
            15.128,
            19.248,
            15.189,
            11.584,
            10.265,
            10.123,
            8.974,
            7.209,
            7.106,
            7.34,
            8.272,
            8.975,
            13.12,
            11.654,
            9.847,
            10.112,
            10.326,
            10.157,
            9.479,
            9.431,
            8.669,
            10.606,
            9.041,
            10.138,
            8.01,
            7.538,
            7.002,
            7.131,
            7.259,
            7.915,
            7.292,
            11.224,
            7.05,
            7.474,
            7.4,
            7.238,
            7.026,
            6.972,
            8.089,
            6.821,
            6.881,
            6.995,
            6.617,
            6.789,
            7.339,
            9.333,
            9.481,
            8.334,
            7.754,
            7.423,
            8.304,
            8.998,
            8.32,
            8.217,
            7.937,
            11.415,
            10.324,
            10.992,
            8.938,
            9.784,
            10.887,
            10.849,
            10.62,
            10.075,
            10.517,
            10.283,
            11.79,
            13.86,
            11.373,
            11.356,
            11.332,
            12.68,
            12.646,
            13.669,
            12.219,
            13.799,
            14.395,
            14.973,
            13.181,
            13.834,
            15.152,
            16.137,
            12.891,
            13.51,
            15.184,
            13.18,
            13.446,
            13.534,
            14.524,
            12.659,
            12.226,
            13.339,
            10.819,
            11.365,
            10.479,
            11.29,
            9.955,
            12.063,
            9.08,
            10.633,
            10.2,
            8.67,
            9.071,
            8.627,
            9.32,
            8.37,
            8.528,
            9.364,
            12.4,
            12.107,
            10.473,
            12.201,
            10.592,
            13.793,
            9.144,
            15.099,
            10.604,
            9.342,
            10.248,
            8.526,
            10.33,
            8.074,
            9.295,
            6.727,
            6.69,
            6.873,
            7.052,
            8.827,
            10.956,
            9.599,
            8.338,
            8.199,
            9.084,
            8.246,
            9.459,
            8.445,
            9.473,
            10.117,
            11.315,
            10.518,
            10.848,
            9.525,
            20.803,
            9.802,
            8.102,
            8.329,
            8.72,
            8.338,
            8.133,
            8.61,
            8.679,
            9.226,
            9.007,
            9.029,
            9.011,
            8.772,
            8.282,
            8.836,
            8.639,
            11.69,
            14.677,
            7.582,
            7.798,
            7.443,
            7.411,
            7.386,
            7.504,
            7.554,
            7.468,
            7.617,
            7.344,
            7.156,
            7.358,
            7.821,
            7.908,
            7.725,
            8.588,
            7.663,
            8.048,
            7.978,
            9.208,
            8.859,
            9.007,
            9.153,
            8.496,
            9.904,
            9.598,
            10.083,
            15.501,
            14.884,
            10.926,
            11.856,
            19.507,
            9.799,
            11.157,
            8.954,
            9.648,
            8.323,
            7.692,
            8.3,
            8.361,
            8.11,
            8.224,
            8.158,
            8.676,
            7.767,
            7.622,
            7.367,
            7.32,
            7.685,
            7.547,
            7.775,
            7.555,
            7.709,
            8.14,
            7.367,
            7.31,
            7.037,
            7.047,
            7.036,
            7.118,
            7.159,
            8.105,
            8.514,
            7.211,
            7.474,
            7.247,
            9.506,
            10.932,
            8.277,
            11.941,
            9.28,
            8.807,
            9.565,
            9.629,
            9.271,
            9.18,
            8.955,
            9.936,
            8.401,
            9.399,
            8.58,
            13.082,
            11.085,
            11.79,
            11.293,
            14.292,
            13.727,
            11.918,
            10.808,
            10.605,
            11.73,
            10.044,
            9.589,
            9.932,
            7.252,
            7.647,
            7.006,
            6.918,
            6.724,
            6.892,
            6.936,
            7.854,
            7.536,
            10.289,
            9.695,
            8.42,
            9.683,
            9.147,
            9.613,
            9.623,
            8.97,
            8.506,
            8.634,
            7.826,
            7.797,
            7.173,
            7.977,
            7.019,
            7.014,
            7.027,
            7.0,
            6.966,
            6.966,
            7.028,
            6.9,
            7.493,
            7.118,
            7.264,
            7.527,
            7.2,
            6.997,
            7.072,
            7.948,
            7.937,
            7.845,
            7.822,
            7.709,
            8.384,
            7.451,
            12.493,
            7.656,
            7.666,
            7.583,
            7.709,
            8.081,
            9.979,
            9.195,
            9.75,
            10.902,
            9.312,
            9.466,
            8.908,
            10.029,
            7.263,
            7.933,
            8.023,
            7.344,
            7.201,
            7.638,
            7.663,
            7.127,
            7.433,
            7.768,
            7.106,
            7.086,
            7.814,
            7.74,
            8.051,
            7.84,
            7.865,
            6.549,
            6.665,
            6.495,
            6.512,
            8.821,
            11.15,
            10.573,
            6.837,
            8.037,
            9.868,
            6.898,
            7.456,
            7.14,
            7.001,
            6.915,
            8.072,
            6.816,
            7.02,
            6.585,
            6.946,
            8.424,
            7.599,
            7.333,
            7.189,
            8.699,
            7.836,
            8.28,
            8.696,
            8.77,
            9.645,
            9.805,
            9.251,
            8.05,
            8.147,
            8.922,
            8.586,
            7.422,
            8.28,
            7.801,
            7.914,
            10.123,
            14.962,
            10.44,
            9.579,
            9.419,
            8.688,
            9.089,
            9.282,
            8.938,
            8.981,
            9.546,
            9.618,
            8.623,
            8.488,
            9.362,
            8.975,
            9.289,
            7.878,
            7.263,
            7.299,
            7.916,
            7.901,
            6.889,
            6.483,
            6.545,
            6.65,
            12.506,
            8.313,
            6.874,
            7.52,
            7.069,
            8.171,
            8.243,
            6.63,
            7.394,
            6.757,
            6.484,
            6.687,
            6.416,
            6.725,
            6.714,
            6.469,
            6.823,
            6.403,
            6.444,
            6.318,
            6.334,
            6.645,
            9.273,
            8.73,
            10.643,
            8.575,
            11.177,
            8.173,
            8.53,
            8.685,
            10.203,
            9.771,
            8.648,
            9.237,
            8.096,
            7.907,
            8.152,
            8.228,
            8.507,
            8.111,
            7.184,
            7.136,
            6.687,
            7.114,
            7.086,
            6.971,
            6.947,
            8.044,
            7.298,
            7.612,
            7.565,
            8.155,
            7.545,
            7.37,
            6.801,
            8.085,
            7.487,
            13.488,
            9.01,
            9.674,
            8.613,
            15.766,
            12.691,
            12.23,
            9.93,
            10.492,
            8.933,
            8.539,
            8.599,
            8.088,
            8.299,
            7.628,
            7.4,
            8.112,
            7.485,
            7.278,
            8.126,
            9.054,
            8.323,
            8.475,
            10.351,
            7.812,
            7.403,
            7.556,
            8.53,
            7.67,
            7.685,
            7.507,
            7.928,
            9.281,
            7.886,
            7.274,
            8.31,
            7.39,
            10.937,
            8.553,
            8.423,
            11.508,
            8.651,
            9.364,
            8.891,
            9.437,
            12.894,
            9.582,
            9.156,
            9.45,
            12.284,
            10.784,
            10.012,
            8.91,
            8.85,
            9.713,
            8.875,
            16.706,
            12.048,
            8.988,
            10.24,
            9.327,
            10.28,
            14.542,
            11.03,
            11.391,
            8.656,
            8.045,
            7.634,
            8.018,
            9.439,
            8.498,
            7.492,
            7.211,
            7.763,
            10.397,
            7.767,
            9.044,
            8.581,
            12.907,
            15.72,
            11.811,
            8.517,
            7.743,
            7.749,
            8.962,
            10.402,
            17.64,
            10.693,
            13.868,
            16.263,
            24.111,
            15.178,
            13.763,
            16.238,
            24.56,
            20.788,
            15.496,
            17.852,
            13.076,
            21.226,
            18.958,
            10.543,
            8.956,
            9.152,
            8.909,
            8.692,
            16.018,
            10.72,
            9.544,
            10.238,
            11.274,
            14.406,
            18.755,
            10.572,
            11.255,
            13.952,
            18.087,
            29.216,
            46.634,
            52.868,
            54.984,
            32.052,
            36.5,
            41.041,
            48.448,
            37.515,
            49.995,
            50.125,
            48.691,
            57.181,
            64.718,
            67.985,
            67.392,
            77.715,
            66.046,
            79.591,
            64.584,
            26.442,
            17.353,
            15.194,
            14.602,
            23.508,
            11.347,
            13.041,
            11.585,
            19.541,
            14.261,
            9.778,
            9.828,
            10.871,
            13.63,
            7.601,
            8.046,
            7.63,
            7.652,
            7.695,
            7.549,
            7.475,
            7.931,
            7.258,
            8.032,
            8.079,
            7.298,
            14.179,
            11.323,
            9.172,
            7.083,
            6.677,
            6.221,
            6.568,
            12.475,
            7.77,
            8.896,
            10.055,
            9.983,
            8.598,
            7.217,
            7.791,
            13.449,
            12.143,
            12.058,
            8.877,
            8.331,
            8.211,
            8.601,
            8.997,
            8.09,
            8.562,
            7.783,
            8.421,
            7.683,
            7.414,
            7.308,
            12.594,
            8.126,
            7.6,
            7.063,
            6.888,
            6.407,
            6.403,
            6.53,
            7.455,
            10.655,
            8.073,
            8.12,
            8.021,
            9.488,
            9.129,
            8.746,
            9.508,
            11.898,
            9.834,
            12.272,
            12.063,
            10.903,
            12.861,
            11.86,
            11.409,
            13.953,
            9.903,
            9.408,
            8.038,
            10.641,
            7.373,
            6.871,
            7.277,
            7.022,
            6.57,
            7.733,
            6.808,
            6.896,
            6.548,
            8.06,
            9.482,
            8.785,
            6.644,
            6.988,
            7.108,
            6.932,
            8.055,
            6.945,
            6.925,
            9.014,
            6.954,
            12.133,
            9.551,
            9.967,
            11.032,
            12.97,
            12.349,
            10.798,
            15.215,
            16.924,
            13.128,
            11.66,
            11.465,
            11.957,
            11.639,
            11.324,
            8.69,
            9.338,
            9.791,
            8.444,
            9.941,
            7.697,
            7.663,
            9.772,
            9.094,
            8.382,
            11.415,
            8.807,
            13.423,
            12.84,
            7.34,
            7.934,
            10.166,
            11.639,
            7.441,
            7.158,
            7.852,
            8.381,
            8.277,
            8.962,
            9.765,
            10.008,
            10.313,
            10.295,
            9.871,
            11.642,
            8.693,
            8.811,
            8.394,
            8.388,
            8.851,
            7.557,
            7.921,
            7.335,
            7.397,
            11.761,
            7.112,
            7.956,
            7.98,
            7.845,
            7.85,
            9.912,
            7.24,
            9.259,
            8.168,
            7.57,
            8.034,
            10.472,
            9.407,
            10.438,
            7.85,
            9.491,
            7.389,
            7.959,
            11.567,
            12.401,
            12.207,
            8.458,
            7.166,
            7.473,
            10.03,
            12.686,
            10.08,
            13.41,
            10.029,
            12.453,
            10.35,
            14.353,
            15.273,
            10.419,
            7.725,
            7.971,
            7.763,
            7.222,
            7.061,
            7.554,
            7.138,
            11.091,
            7.27,
            9.734,
            9.309,
            6.936,
            6.76,
            6.649,
            6.861,
            6.814,
            6.649,
            6.461,
            6.445,
            6.132,
            7.049,
            6.173,
            6.249,
            6.36,
            7.559,
            6.322,
            6.38,
            8.861,
            8.447,
            8.608,
            7.396,
            7.321,
            6.82,
            6.656,
            7.066,
            6.54,
            6.891,
            6.963,
            6.742,
            6.745,
            7.252,
            7.163,
            8.152,
            7.764,
            8.292,
            8.256,
            8.197,
            9.473,
            8.714,
            9.492,
            10.282,
            9.612,
            9.514,
            9.369,
            8.839,
            9.539,
            7.408,
            10.0,
            8.552,
            7.881,
            12.532,
            9.355,
            13.815,
            8.311,
            7.152,
            7.847,
            7.805,
            7.827,
            7.636,
            9.966,
            9.62,
            7.6,
            6.817,
            6.983,
            6.711,
            7.321,
            10.424,
            6.455,
            6.44,
            6.641,
            6.322,
            7.463,
            6.809,
            8.438,
            11.651,
            9.358,
            9.369,
            9.344,
            7.108,
            10.47,
            7.042,
            6.977,
            8.797,
            7.391,
            6.886,
            7.333,
            7.437,
            7.259,
            6.648,
            6.963,
            7.617,
            9.176,
            8.86,
            8.127,
            7.543,
            9.613,
            9.144,
            6.652,
            7.201,
            6.628,
            6.235,
            6.384,
            6.515,
            6.621,
            6.829,
            8.142,
            7.119,
            7.072,
            7.344,
            9.902,
            7.932,
            9.475,
            6.778,
            6.896,
            6.846,
            6.791,
            8.912,
            7.42,
            6.819,
            6.621,
            7.074,
            7.319,
            10.363,
            12.56,
            8.055,
            13.542,
            8.014,
            12.079,
            9.281,
            9.388,
            10.406,
            18.343,
            11.74,
            7.771,
            7.801,
            7.706,
            7.465,
            7.256,
            8.64,
            7.727,
            7.931,
            8.143,
            8.125,
            8.154,
            9.91,
            7.654,
            8.84,
            10.09,
            7.905,
            7.823,
            7.856,
            7.678,
            7.726,
            7.63,
            7.568,
            11.202,
            8.24,
            7.634,
            7.397,
            11.876,
            7.407,
            11.487,
            7.497,
            24.79,
            7.374,
            7.474,
            8.025,
            8.181,
            10.502,
            9.267,
            10.9,
            11.809,
            10.749,
            14.334,
            12.861,
            7.917,
            7.283,
            8.093,
            7.546,
            7.209,
            6.63,
            7.545,
            8.479,
            6.367,
            8.535,
            6.935,
            9.146,
            12.504,
            13.755,
            13.451,
            15.209,
            9.572,
            9.682,
            9.914,
            9.446,
            9.033,
            8.86,
            8.729,
            14.595,
            8.612,
            8.469,
            8.823,
            14.035,
            8.566,
            8.375,
            9.302,
            8.08,
            11.316,
            9.168,
            8.136,
            9.431,
            7.634,
            8.11,
            9.29,
            8.04,
            8.746,
            9.131,
            12.172,
            12.161,
            10.328,
            8.658,
            10.804,
            9.102,
            8.837,
            7.795,
            7.995,
            13.489,
            9.529,
            7.643,
            7.449,
            8.776,
            16.561,
            7.825,
            7.672,
            6.797,
            6.921,
            7.014,
            7.459,
            9.389,
            7.843,
            6.888,
            9.835,
            7.287,
            10.667,
            9.93,
            7.604,
            7.486,
            7.872,
            7.631,
            8.383,
            8.53,
            9.502,
            9.231,
            7.969,
            11.313,
            10.196,
            10.087,
            7.089,
            7.257,
            7.136,
            8.024,
            7.968,
            11.75,
            7.471,
            7.221,
            7.17,
            8.052,
            10.363,
            11.24,
            7.253,
            7.483,
            8.216,
            9.166,
            8.343,
            8.158,
            13.318,
            10.758,
            7.686,
            7.716,
            7.448,
            7.483,
            7.061,
            7.672,
            7.708,
            8.544,
            9.276,
            10.775,
            11.964,
            13.544,
            9.4,
            8.435,
            8.473,
            8.484,
            7.784,
            9.36,
            7.946,
            8.383,
            7.74,
            10.013,
            8.704,
            8.369,
            8.31,
            9.388,
            7.847,
            9.649,
            8.995,
            7.61,
            10.406,
            7.907,
            9.102,
            10.413,
            10.728,
            10.352,
            13.086,
            12.48,
            8.444,
            9.777,
            7.902,
            7.875,
            7.804,
            8.619,
            8.21,
            7.958,
            10.039,
            9.344,
            14.892,
            15.34,
            14.196,
            16.713,
            10.624,
            9.884,
            8.369,
            8.696,
            9.36,
            9.896,
            7.921,
            9.741,
            8.163,
            7.994,
            7.391,
            12.214,
            10.465,
            10.144,
            10.901,
            10.094,
            9.731,
            20.904,
            10.419,
            11.587,
            8.786,
            9.009,
            8.792,
            8.826,
            8.379,
            8.12,
            10.249,
            9.524,
            7.829,
            8.879,
            8.116,
            8.419,
            8.785,
            9.255,
            12.266,
            12.863,
            8.833,
            8.158,
            10.34,
            8.723,
            9.091,
            9.673,
            13.946,
            7.662,
            7.737,
            7.515,
            7.325,
            7.109,
            6.619,
            6.912,
            6.864,
            6.829,
            7.75,
            6.468,
            6.802,
            7.474,
            10.493,
            15.177,
            15.872,
            9.477,
            8.567,
            7.197,
            7.202,
            8.334,
            9.781,
            13.247,
            15.531,
            12.726,
            7.914,
            8.951,
            9.585,
            10.405,
            9.711,
            7.924,
            8.379,
            7.487,
            6.921,
            6.615,
            9.292,
            6.521,
            6.41,
            6.163,
            8.399,
            11.425,
            24.29,
            8.727,
            14.893,
            10.721,
            14.016,
            13.381,
            8.855,
            8.33,
            7.714,
            8.07,
            7.843,
            6.972,
            7.135,
            7.118,
            6.715,
            6.863,
            7.156,
            7.402,
            6.787,
            6.872,
            7.036,
            7.857,
            6.957,
            6.573,
            6.886,
            6.636,
            7.052,
            7.172,
            6.868,
            7.528,
            7.602,
            7.984,
            8.017,
            7.697,
            8.398,
            8.972,
            12.899,
            13.491,
            9.186,
            9.312,
            9.928,
            7.45,
            9.301,
            8.166,
            7.838,
            7.936,
            10.294,
            13.307,
            17.444,
            18.402,
            8.99,
            10.101,
            8.378,
            12.488,
            9.249,
            8.713,
            8.038,
            10.185,
            13.238,
            8.805,
            7.967,
            7.631,
            8.507,
            7.582,
            8.625,
            6.854,
            6.933,
            7.086,
            7.29,
            6.74,
            6.908,
            6.695,
            7.016,
            6.896,
            6.951,
            7.696,
            7.977,
            6.686,
            7.279,
            6.997,
            7.162,
            6.8,
            7.157,
            6.879,
            6.384,
            6.967,
            7.436,
            7.415,
            9.084,
            7.411,
            7.146,
            9.433,
            10.209,
            7.264,
            9.238,
            6.768,
            6.874,
            6.546,
            6.838,
            8.999,
            6.763,
            9.06,
            8.783,
            9.153,
            7.32,
            6.609,
            7.863,
            6.876,
            10.73,
            7.229,
            9.403,
            9.45,
            6.8,
            9.403,
            9.693,
            10.806,
            11.273,
            17.473,
            23.995,
            21.091,
            9.408,
            9.332,
            11.145,
            16.218,
            12.857,
            7.86,
            8.351,
            8.454,
            8.223,
            7.67,
            9.047,
            8.132,
            7.542,
            8.017,
            7.447,
            7.586,
            9.694,
            10.715,
            9.203,
            6.605,
            6.329,
            8.36,
            7.929,
            10.073,
            9.061,
            9.77,
            14.699,
            9.859,
            10.222,
            12.799,
            7.878,
            7.988,
            7.506,
            11.099,
            13.892,
            7.615,
            8.16,
            11.761,
            12.835,
            9.17,
            13.566,
            9.437,
            6.462,
            6.094,
            6.681,
            6.707,
            8.767,
            9.247,
            10.033,
            10.283,
            10.776,
            12.177,
            7.484,
            7.821,
            7.555,
            6.091,
            8.076,
            6.984,
            10.288,
            11.181,
            13.431,
            9.373,
            6.996,
            8.511,
            6.624,
            6.5,
            6.064,
            7.401,
            7.709,
            7.029,
            7.079,
            6.956,
            7.758,
            9.137,
            8.126,
            14.447,
            12.045,
            11.954,
            14.771,
            10.981,
            11.33,
            10.71,
            13.524,
            14.158,
            8.623,
            13.299,
            21.203,
            14.605,
            7.705,
            6.141,
            6.133,
            6.677,
            6.741,
            6.045,
            11.593,
            12.702,
            7.862,
            7.354,
            7.296,
            6.729,
            7.338,
            6.783,
            6.407,
            7.375,
            6.864,
            7.384,
            7.084,
            6.628,
            8.076,
            7.623,
            6.334,
            8.02,
            9.239,
            9.624,
            10.633,
            9.979,
            6.954,
            6.958,
            6.478,
            6.098,
            7.393,
            6.276,
            7.44,
            9.061,
            10.015,
            9.182,
            14.0,
            8.402,
            9.657,
            11.777,
            8.649,
            8.708,
            11.538,
            8.741,
            9.83,
            9.457,
            11.11,
            12.538,
            8.309,
            9.346,
            6.459,
            6.28,
            7.089,
            5.891,
            7.43,
            8.688,
            6.16,
            6.115,
            9.039,
            10.004,
            14.834,
            15.426,
            7.723,
            6.304,
            7.149,
            10.064,
            5.861,
            6.008,
            6.046,
            5.764,
            7.857,
            8.509,
            7.349,
            6.963,
            7.684,
            7.914,
            5.896,
            5.675,
            5.589,
            5.954,
            6.153,
            7.506,
            9.077,
            8.232,
            10.894,
            6.299,
            7.143,
            6.246,
            9.91,
            16.918,
            12.353,
            9.831,
            6.731,
            7.555,
            7.681,
            10.592,
            9.957,
            6.723,
            5.93,
            7.567,
            8.951,
            11.19,
            6.642,
            7.338,
            9.746,
            8.838,
            6.864,
            7.956,
            5.93,
            5.839,
            5.692,
            6.187,
            9.374,
            9.998,
            12.011,
            11.132,
            6.003,
            5.795,
            6.34,
            7.905,
            5.899,
            6.25,
            5.775,
            5.683,
            5.77,
            5.766,
            5.527,
            12.369,
            13.406,
            13.652,
            12.178,
            6.249,
            7.422,
            8.93,
            7.13,
            6.873,
            7.574,
            7.676,
            5.919,
            6.429,
            6.968,
            10.087,
            7.826,
            5.886,
            5.958,
            6.271,
            6.048,
            9.674,
            12.895,
            17.936,
            18.361,
            13.024,
            8.783,
            11.781,
            17.877,
            16.032,
            12.766,
            12.304,
            12.895,
            9.983,
            12.638,
            17.328,
            15.847,
            12.449,
            7.133,
            7.072,
            6.451,
            7.302,
            7.533,
            6.317,
            6.491,
            6.842,
            6.103,
            11.17,
            10.408,
            6.197,
            5.807,
            6.608,
            6.264,
            7.627,
            8.099,
            12.096,
            6.78,
            7.086,
            6.506,
            9.503,
            7.942,
            6.061,
            6.295,
            8.977,
            5.84,
            10.288,
            10.433,
            10.025,
            6.062,
            8.388,
            6.263,
            6.178,
            8.016,
            12.095,
            20.809,
            16.165,
            8.518,
            8.137,
            7.537,
            7.085,
            9.989,
            7.887,
            7.299,
            7.013,
            6.166,
            6.173,
            5.757,
            5.759,
            5.528,
            5.674,
            5.735,
            5.705,
            5.851,
            5.808,
            5.684,
            6.951,
            5.93,
            6.339,
            15.495,
            11.524,
            6.78,
            9.428,
            6.394,
            8.339,
            7.416,
            6.962,
            8.729,
            10.541,
            8.826,
            5.762,
            9.526,
            18.53,
            10.244,
            8.094,
            7.873,
            10.89,
            10.331,
            7.155,
            7.352,
            10.851,
            8.309,
            6.058,
            13.82,
            15.661,
            18.813,
            7.487,
            7.202,
            8.556,
            9.92,
            10.831,
            8.601,
            6.314,
            7.156,
            12.534,
            9.278,
            6.611,
            6.352,
            6.464,
            8.142,
            6.602,
            6.206,
            6.091,
            6.539,
            8.257,
            6.145,
            6.155,
            11.848,
            12.765,
            10.859,
            10.462,
            6.649,
            7.361,
            6.804,
            6.612,
            7.006,
            9.784,
            7.272,
            7.259,
            8.054,
            6.683,
            8.073,
            8.8,
            9.743,
            10.526,
            7.541,
            9.941,
            6.014,
            7.462,
            9.161,
            5.744,
            7.604,
            6.853,
            7.12,
            7.525,
            6.972,
            8.198,
            7.775,
            7.448,
            6.114,
            6.348,
            6.799,
            5.997,
            6.687,
            5.869,
            12.29,
            9.588,
            9.204,
            6.232,
            6.259,
            6.289,
            6.278,
            7.925,
            9.605,
            6.404,
            6.527,
            8.337,
            8.445,
            6.546,
            6.139,
            8.748,
            14.262,
            13.744,
            6.239,
            6.025,
            5.974,
            7.197,
            9.739,
            5.794,
            7.274,
            8.155,
            12.094,
            10.767,
            13.542,
            14.767,
            17.214,
            8.823,
            7.817,
            9.75,
            11.176,
            11.532,
            11.699,
            7.117,
            6.999,
            9.267,
            10.93,
            6.593,
            7.668,
            9.904,
            6.805,
            6.955,
            6.473,
            6.978,
            6.292,
            6.381,
            14.227,
            14.475,
            16.138,
            10.522,
            7.19,
            13.328,
            10.158,
            8.522,
            7.739,
            8.991,
            6.861,
            6.392,
            8.308,
            8.532,
            7.156,
            9.507,
            7.581,
            7.871,
            6.476,
            7.377,
            6.628,
            8.039,
            15.051,
            18.881,
            21.313,
            6.507,
            7.017,
            13.832,
            9.313,
            6.601,
            6.664,
            8.12,
            6.432,
            6.085,
            6.665,
            7.797,
            11.626,
            7.072,
            9.292,
            8.076,
            6.321,
            14.681,
            15.038,
            15.807,
            14.063,
            9.672,
            10.976,
            6.946,
            12.19,
            14.576,
            13.644,
            6.597,
            5.834,
            8.238,
            7.884,
            8.502,
            12.904,
            10.602,
            17.939,
            14.133,
            11.527,
            12.378,
            11.553,
            7.558,
            6.013,
            6.071,
            7.897,
            8.641,
            6.8,
            6.652,
            6.144,
            7.26,
            8.52,
            8.423,
            8.749,
            6.777,
            7.1,
            6.895,
            6.269,
            5.973,
            6.232,
            5.89,
            6.219,
            6.497,
            10.223,
            12.283,
            9.247,
            7.909,
            10.687,
            11.52,
            6.175,
            8.503,
            7.948,
            8.995,
            8.329,
            9.71,
            7.981,
            9.608,
            9.409,
            6.762,
            7.702,
            9.873,
            11.649,
            13.325,
            13.347,
            11.2,
            14.49,
            17.499,
            16.907,
            11.079,
            14.28,
            11.886,
            6.349,
            13.221,
            7.688,
            7.437,
            7.469,
            7.246,
            7.557,
            6.512,
            6.494,
            7.693,
            6.518,
            8.017,
            18.372,
            13.71,
            10.898,
            8.246,
            6.688,
            9.418,
            9.657,
            8.035,
            7.545,
            8.41,
            6.468,
            6.977,
            6.588,
            6.575,
            6.727,
            6.362,
            9.673,
            8.914,
            7.746,
            10.279,
            12.259,
            9.934,
            12.236,
            6.895,
            7.829,
            6.58,
            6.261,
            10.003,
            6.176,
            8.748,
            6.557,
            9.053,
            8.594,
            10.576,
            11.512,
            8.45,
            5.978,
            6.014,
            10.084,
            6.197,
            6.537,
            9.439,
            13.605,
            9.718,
            7.109,
            7.458,
            8.408,
            7.253,
            6.909,
            5.951,
            7.335,
            6.224,
            5.799,
            10.204,
            10.15,
            10.069,
            6.397,
            6.66,
            6.546,
            6.36,
            7.309,
            7.746,
            6.247,
            10.178,
            6.253,
            8.257,
            6.459,
            5.944,
            6.19,
            5.977,
            6.217,
            8.716,
            6.947,
            8.586,
            7.408,
            6.254,
            6.973,
            8.027,
            8.201,
            6.749,
            6.506,
            6.055,
            6.189,
            7.279,
            6.488,
            6.166,
            7.621,
            6.283,
            6.292,
            9.275,
            6.316,
            7.19,
            7.458,
            5.903,
            6.271,
            6.045,
            5.916,
            5.755,
            6.752,
            7.75,
            9.522,
            5.855,
            6.38,
            6.137,
            6.541,
            7.809,
            6.748,
            6.318,
            6.21,
            7.725,
            6.558,
            6.598,
            5.993,
            6.188,
            6.728,
            6.017,
            5.855,
            5.788,
            6.214,
            5.839,
            5.945,
            6.393,
            7.16,
            6.242,
            6.474,
            7.94,
            9.088,
            7.13,
            6.416,
            6.494,
            7.368,
            7.462,
            6.803,
            6.384,
            6.405,
            6.058,
            6.051,
            6.282,
            8.136,
            9.517,
            8.621,
            9.279,
            7.95,
            9.266,
            7.057,
            8.521,
            6.219,
            6.336,
            7.439,
            9.748,
            8.478,
            9.746,
            9.538,
            13.222,
            19.021,
            11.268,
            10.961,
            12.702,
            6.532,
            5.886,
            5.488,
            6.276,
            5.746,
            6.068,
            11.192,
            7.572,
            5.607,
            8.251,
            10.901,
            8.641,
            9.618,
            9.573,
            7.841,
            7.024,
            6.414,
            9.642,
            6.76,
            6.512,
            6.163,
            8.782,
            7.78,
            8.392,
            8.092,
            8.625,
            8.327,
            7.66,
            7.743,
            8.081,
            9.692,
            8.29,
            8.103,
            7.557,
            8.492,
            10.522,
            8.182,
            7.306,
            6.068,
            6.02,
            5.82,
            8.486,
            7.825,
            8.481,
            11.773,
            10.472,
            9.473,
            9.985,
            7.503,
            12.25,
            10.581,
            7.907,
            7.183,
            6.374,
            6.11,
            8.627,
            7.307,
            6.479,
            7.426,
            6.325,
            7.469,
            7.402,
            9.716,
            9.46,
            6.089,
            5.794,
            6.256,
            6.954,
            6.464,
            7.261,
            6.279,
            5.829,
            7.146,
            7.937,
            5.862,
            6.262,
            6.484,
            10.812,
            6.185,
            8.256,
            11.72,
            9.352,
            10.258,
            6.936,
            6.195,
            9.015,
            10.879,
            14.055,
            6.404,
            8.648,
            9.619,
            10.05,
            7.269,
            7.327,
            7.779,
            8.827,
            7.857,
            10.097,
            9.211,
            5.761,
            6.311,
            6.374,
            7.57,
            7.653,
            10.093,
            9.049,
            5.859,
            6.216,
            5.823,
            5.807,
            9.057,
            9.727,
            11.194,
            6.71,
            6.075,
            9.513,
            8.883,
            10.774,
            8.432,
            9.483,
            10.065,
            8.466,
            10.669,
            10.67,
            7.129,
            5.799,
            5.728,
            5.594,
            8.949,
            8.588,
            12.728,
            6.479,
            5.53,
            7.163,
            7.375,
            7.349,
            6.457,
            6.929,
            8.116,
            7.12,
            6.581,
            7.953,
            10.057,
            6.175,
            6.984,
            5.601,
            7.153,
            6.02,
            6.462,
            7.107,
            8.241,
            5.988,
            6.507,
            7.369,
            8.768,
            6.052,
            6.971,
            6.109,
            5.778,
            10.405,
            12.129,
            7.484,
            10.67,
            8.286,
            5.984,
            5.688,
            6.476,
            6.455,
            5.677,
            6.429,
            7.584,
            8.361,
            6.368,
            6.118,
            5.72,
            9.018,
            5.587,
            5.885,
            7.72,
            7.839,
            7.932,
            7.229,
            8.604,
            8.847,
            8.33,
            6.111,
            8.416,
            9.077,
            15.107,
            14.201,
            7.654,
            18.003,
            8.197,
            10.987,
            12.506,
            8.622,
            9.978,
            6.474,
            6.094,
            6.154,
            7.856,
            9.528,
            5.756,
            5.862,
            7.44,
            7.737,
            11.345,
            7.5,
            7.357,
            6.342,
            5.693,
            7.07,
            7.994,
            12.228,
            6.616,
            7.582,
            9.535,
            6.829,
            8.78,
            5.935,
            8.467,
            6.762,
            6.216,
            5.688,
            5.261,
            5.979,
            7.149,
            14.028,
            7.206,
            7.907,
            7.96,
            8.946,
            8.362,
            8.303,
            5.765,
            7.265,
            5.59,
            6.923,
            7.551,
            7.451,
            7.159,
            6.123,
            8.777,
            6.739,
            8.567,
            8.032,
            6.988,
            10.791,
            8.544,
            9.732,
            13.258,
            5.669,
            6.494,
            9.231,
            6.297,
            10.758,
            7.146,
            6.805,
            5.944,
            7.576,
            6.477,
            7.592,
            7.326,
            8.609,
            8.28,
            9.245,
            8.854,
            9.55,
            8.695,
            7.987,
            8.148,
            8.44,
            7.592,
            8.581,
            7.43,
            8.153,
            6.67,
            6.213,
            6.225,
            7.33,
            6.745,
            6.485,
            6.923,
            7.059,
            7.045,
            8.641,
            11.461,
            10.677,
            9.487,
            8.72,
            10.071,
            6.746,
            6.759,
            6.899,
            5.647,
            5.506,
            8.026,
            6.931,
            6.094,
            7.908,
            7.589,
            6.054,
            7.651,
            6.111,
            6.997,
            5.499,
            6.445,
            5.487,
            5.831,
            8.166,
            5.672,
            5.745,
            6.052,
            5.925,
            5.918,
            7.599,
            7.832,
            5.952,
            7.183,
            8.331,
            10.634,
            6.122,
            7.399,
            10.334,
            5.971,
            5.506,
            6.257,
            5.44,
            6.352,
            7.285,
            5.804,
            7.08,
            6.056,
            10.226,
            9.296,
            6.523,
            6.64,
            5.388,
            5.608,
            6.172,
            5.39,
            5.425,
            5.974,
            9.36,
            11.336,
            8.311,
            6.611,
            11.949,
            6.881,
            5.768,
            6.418,
            5.371,
            6.579,
            6.049,
            7.73,
            8.734,
            7.116,
            9.02,
            8.064,
            6.799,
            7.146,
            5.428,
            6.712,
            12.086,
            12.144,
            7.96,
            5.518,
            6.367,
            6.813,
            7.214,
            8.268,
            8.02,
            6.344,
            5.99,
            7.905,
            6.216,
            6.144,
            8.184,
            6.781,
            5.79,
            8.925,
            5.869,
            12.351,
            8.072,
            7.652,
            12.788,
            9.579,
            9.646,
            10.194,
            7.135,
            10.285,
            11.075,
            7.0,
            10.476,
            7.365,
            8.3,
            10.052,
            13.663,
            7.481,
            11.41,
            6.398,
            6.213,
            8.686,
            7.533,
            14.101,
            16.95,
            7.272,
            9.225,
            15.031,
            12.435,
            8.558,
            7.61,
            6.978,
            7.822,
            13.206,
            9.389,
            7.863,
            10.239,
            5.827,
            15.078,
            10.101,
            7.376,
            7.109,
            9.4,
            6.329,
            5.991,
            6.152,
            6.06,
            8.584,
            7.105,
            5.71,
            6.549,
            13.628,
            7.659,
            11.718,
            7.566
          ]
        ]
      }
    }
  },
  "experimental_conditions": {
    "001": {
      "0": {
        "detector": [
          {
            "x4_code": "(SOLST)",
            "free_txt": [
              " 3 solid-state detectors."
            ]
          }
        ],
        "err-analys": [
          {
            "x4_code": null,
            "free_txt": [
              "Energy error due to hold-up time in moderator - 1",
              " microsec."
            ]
          },
          {
            "x4_code": "(DATA-ERR)",
            "free_txt": [
              " Above 100 eV, systematic data errors 5.63,",
              " 5.16, 5.90% for the 3 detectors. Below 100 eV,",
              " systematic errors 3.94, 3.2 and 4.32%."
            ]
          }
        ],
        "method": [
          {
            "x4_code": "(TOF)",
            "free_txt": [
              " Time-of-flight. 303.56-m flight path."
            ]
          }
        ],
        "monitor": [
          {
            "x4_code": "(2-HE-3(N,P)1-H-3,,SIG)",
            "free_txt": [
              " Below 100 eV, neutron flux measured relative to",
              "  3He(n,p)."
            ]
          },
          {
            "x4_code": "(3-LI-6(N,T)2-HE-4,,SIG)",
            "free_txt": [
              " Above 100 eV, flux measured relative to",
              " 3He(n,alpha)."
            ]
          }
        ],
        "sample": [
          {
            "x4_code": null,
            "free_txt": [
              "6 mg of uranium oxide evaporated onto 0.3-mil platinum",
              " backing."
            ]
          }
        ],
        "status": [
          {
            "x4_code": "(APRVD)",
            "free_txt": [
              " Approved by author.",
              "Data received on magnetic tape from P.A. Seeger,",
              " August, 1970."
            ]
          }
        ]
      }
    },
    "002": {}
  }
}