{
  "entry": "13875",
  "last_updated": "2006-07-20",
  "number_of_revisions": "3",
  "histories": [
    {
      "x4_code": "(20030303C)",
      "free_txt": [
        " VM+DW"
      ]
    }
  ],
  "bib_record": {
    "authors": [
      {
        "name": "J.A.Harvey"
      }
    ],
    "institutes": [
      {
        "x4_code": "(1USAORL)",
        "free_txt": []
      }
    ],
    "references": {
      "0": [
        {
          "x4_code": "(W,HARVEY,1975)",
          "free_txt": [],
          "publication_year": "1975"
        }
      ]
    },
    "facilities": {
      "0": [
        {
          "x4_code": "(LINAC,1USAORL)",
          "free_txt": [
            " ORELA"
          ],
          "facility_type": "(LINAC)",
          "institute": "(1USAORL)"
        }
      ]
    }
  },
  "data_tables": {
    "001": {
      "extra_information": {
        "detector": {
          "0": [
            {
              "x4_code": "(GLASD)",
              "free_txt": [
                " 0.5 inch 6Li glass detector."
              ]
            }
          ]
        },
        "err-analys": {
          "0": [
            {
              "x4_code": "(DATA-ERR)",
              "free_txt": [
                " Absolute uncertainty."
              ]
            }
          ]
        },
        "facility": {
          "0": [
            {
              "x4_code": "(LINAC,1USAORL)",
              "free_txt": [
                " ORELA"
              ]
            }
          ]
        },
        "method": {
          "0": [
            {
              "x4_code": "(TOF)",
              "free_txt": [
                " 17.884-m flight path."
              ]
            }
          ]
        },
        "status": {
          "0": [
            {
              "x4_code": null,
              "free_txt": [
                "Data produced from J. Harvey files by D. Wiarda."
              ]
            },
            {
              "x4_code": "(COREL,13774001)",
              "free_txt": [
                " Similar to run 8180, but with lower",
                "  repitition rate."
              ]
            }
          ]
        }
      }
    },
    "002": {
      "reaction": {
        "0": {
          "x4_code": "(28-NI-59(N,TOT),,SIG)",
          "0": {
            "code": [
              "28-NI-59",
              [
                "N,TOT"
              ],
              ",,SIG"
            ],
            "type": null,
            "target": "28-NI-59",
            "process": "N,TOT",
            "sf49": ",,SIG",
            "sf4": null,
            "sf5": null,
            "sf6": "SIG",
            "sf7": null,
            "sf8": null,
            "sf9": null
          },
          "type": null,
          "free_text": " Run ID: 8188."
        }
      },
      "extra_information": {
        "sample": {
          "0": [
            {
              "x4_code": null,
              "free_txt": [
                "59Ni sample. Sample thickness 9.099E-04 atoms/b",
                " (1/N = 1099 b/atom)."
              ]
            }
          ]
        }
      },
      "common": null,
      "data": {
        "heads": [
          "EN",
          "DATA",
          "DATA-ERR"
        ],
        "units": [
          "EV",
          "B",
          "B"
        ],
        "data": [
          [
            148360.0,
            136400.0,
            125830.0,
            116450.0,
            108080.0,
            100570.0,
            93828.0,
            87738.0,
            82223.0,
            77211.0,
            72645.0,
            68472.0,
            64648.0,
            61136.0,
            57903.0,
            54919.0,
            52161.0,
            49605.0,
            47232.0,
            45026.0,
            42971.0,
            41053.0,
            39261.0,
            37584.0,
            36012.0,
            34537.0,
            33150.0,
            31845.0,
            30616.0,
            29457.0,
            28362.0,
            27327.0,
            26348.0,
            25421.0,
            24541.0,
            23707.0,
            22914.0,
            22161.0,
            21444.0,
            20761.0,
            20110.0,
            19490.0,
            18898.0,
            18332.0,
            17791.0,
            17274.0,
            16779.0,
            16306.0,
            15851.0,
            15416.0,
            14998.0,
            14597.0,
            14212.0,
            13842.0,
            13487.0,
            13144.0,
            12815.0,
            12498.0,
            12192.0,
            11898.0,
            11614.0,
            11340.0,
            11076.0,
            10821.0,
            10574.0,
            10336.0,
            10106.0,
            9883.5,
            9762.7,
            9738.9,
            9715.2,
            9691.5,
            9667.9,
            9644.4,
            9621.0,
            9597.7,
            9574.5,
            9551.4,
            9528.3,
            9505.3,
            9482.4,
            9459.6,
            9436.9,
            9414.2,
            9391.7,
            9369.2,
            9346.8,
            9324.5,
            9302.2,
            9280.0,
            9258.0,
            9236.0,
            9214.0,
            9192.2,
            9170.4,
            9148.7,
            9127.1,
            9105.5,
            9084.1,
            9062.7,
            9041.4,
            9020.1,
            8999.0,
            8977.9,
            8956.9,
            8935.9,
            8915.1,
            8894.3,
            8873.5,
            8852.9,
            8832.3,
            8811.8,
            8791.4,
            8690.5,
            8512.8,
            8340.5,
            8173.4,
            8011.2,
            7853.9,
            7701.1,
            7552.7,
            7408.6,
            7268.6,
            7132.5,
            7000.2,
            6871.5,
            6746.4,
            6678.2,
            6664.7,
            6651.3,
            6637.9,
            6624.5,
            6611.2,
            6597.9,
            6584.7,
            6571.5,
            6558.3,
            6545.2,
            6532.1,
            6519.0,
            6506.0,
            6493.1,
            6480.1,
            6467.2,
            6454.4,
            6441.6,
            6428.8,
            6416.1,
            6403.4,
            6390.7,
            6378.1,
            6365.5,
            6352.9,
            6340.4,
            6327.9,
            6315.5,
            6303.1,
            6290.7,
            6278.4,
            6266.1,
            6253.8,
            6241.6,
            6229.4,
            6217.3,
            6205.2,
            6193.1,
            6181.0,
            6169.0,
            6157.1,
            6145.1,
            6133.2,
            6121.3,
            6109.5,
            6097.7,
            6085.9,
            6074.2,
            6062.5,
            6050.8,
            6039.2,
            6027.6,
            6016.0,
            6004.5,
            5993.0,
            5981.6,
            5970.1,
            5958.7,
            5947.3,
            5936.0,
            5924.7,
            5913.4,
            5902.2,
            5891.0,
            5879.8,
            5868.7,
            5857.6,
            5846.5,
            5835.4,
            5824.4,
            5813.4,
            5802.5,
            5791.6,
            5780.7,
            5769.8,
            5759.0,
            5748.2,
            5737.4,
            5726.7,
            5716.0,
            5705.3,
            5694.6,
            5684.0,
            5673.4,
            5662.8,
            5652.3,
            5641.8,
            5631.3,
            5620.9,
            5610.5,
            5600.1,
            5589.7,
            5579.4,
            5569.1,
            5558.8,
            5548.6,
            5538.4,
            5528.2,
            5518.0,
            5507.9,
            5497.8,
            5487.7,
            5477.7,
            5427.9,
            5339.9,
            5254.1,
            5170.3,
            5088.4,
            5008.5,
            4930.5,
            4854.3,
            4779.8,
            4707.1,
            4635.9,
            4566.4,
            4498.5,
            4432.0,
            4367.0,
            4303.4,
            4241.2,
            4180.4,
            4120.8,
            4062.5,
            4005.4,
            3949.6,
            3894.8,
            3841.3,
            3788.8,
            3737.4,
            3687.0,
            3637.6,
            3589.2,
            3541.8,
            3495.3,
            3449.7,
            3405.1,
            3361.2,
            3318.2,
            3276.1,
            3234.7,
            3194.1,
            3154.3,
            3115.2,
            3076.8,
            3039.1,
            3002.2,
            2965.9,
            2930.2,
            2895.2,
            2860.8,
            2827.0,
            2793.8,
            2761.2,
            2729.2,
            2697.7,
            2666.8,
            2636.4,
            2606.5,
            2577.1,
            2548.2,
            2519.8,
            2491.8,
            2464.3,
            2437.3,
            2410.7,
            2384.6,
            2358.9,
            2333.5,
            2308.6,
            2284.1,
            2260.0,
            2236.3,
            2212.9,
            2189.9,
            2167.2,
            2144.9,
            2123.0,
            2101.4,
            2080.1,
            2059.1,
            2038.4,
            2018.1,
            1998.0,
            1978.3,
            1958.8,
            1939.7,
            1920.8,
            1902.2,
            1883.8,
            1865.7,
            1847.9,
            1830.4,
            1813.0,
            1796.0,
            1779.1,
            1762.5,
            1746.2,
            1730.0,
            1714.1,
            1698.4,
            1682.9,
            1667.7,
            1652.6,
            1637.7,
            1623.1,
            1608.6,
            1594.3,
            1580.2,
            1566.3,
            1552.6,
            1539.1,
            1525.7,
            1512.5,
            1499.5,
            1486.7,
            1474.0,
            1461.4,
            1449.1,
            1436.9,
            1424.8,
            1412.9,
            1401.2,
            1389.5,
            1378.1,
            1366.8,
            1355.6,
            1344.5,
            1333.6,
            1322.8,
            1312.2,
            1301.6,
            1291.2,
            1281.0,
            1270.8,
            1260.8,
            1250.9,
            1241.1,
            1231.4,
            1221.8,
            1212.4,
            1203.0,
            1193.8,
            1184.7,
            1175.6,
            1166.7,
            1157.9,
            1149.1,
            1140.5,
            1132.0,
            1123.5,
            1115.2,
            1107.0,
            1098.8,
            1090.7,
            1082.7,
            1074.9,
            1067.1,
            1059.3,
            1051.7,
            1044.1,
            1036.7,
            1029.3,
            1021.9,
            1014.7,
            1007.5,
            1000.5,
            993.45,
            986.51,
            979.65,
            972.85,
            966.13,
            959.48,
            952.89,
            946.37,
            939.92,
            933.53,
            927.21,
            920.96,
            914.76,
            908.63,
            902.56,
            896.55,
            890.6,
            884.71,
            878.88,
            873.1,
            867.38,
            861.72,
            856.11,
            850.56,
            845.06,
            839.62,
            834.23,
            828.88,
            823.59,
            818.35,
            813.16,
            808.02,
            802.93,
            797.89,
            792.89,
            787.94,
            783.04,
            778.18,
            773.37,
            768.6,
            763.87,
            759.19,
            754.56,
            749.96,
            745.41,
            740.89,
            736.42,
            731.99,
            727.6,
            723.25,
            718.93,
            714.66,
            710.42,
            706.22,
            702.06,
            697.94,
            693.85,
            689.79,
            685.78,
            681.79,
            677.85,
            673.93,
            670.05,
            666.21,
            662.39,
            658.61,
            654.86,
            651.15,
            647.46,
            643.81,
            640.18,
            636.59,
            633.03,
            629.49,
            625.99,
            622.52,
            619.07,
            615.65,
            612.27,
            608.91,
            605.57,
            602.27,
            598.99,
            595.74,
            592.51,
            589.31,
            586.14,
            582.99,
            579.87,
            576.77,
            573.7,
            570.65,
            567.62,
            564.62,
            561.65,
            560.0,
            559.67,
            559.35,
            559.02,
            558.69,
            558.37,
            558.04,
            557.71,
            557.39,
            557.06,
            556.74,
            556.41,
            556.09,
            555.76,
            555.44,
            555.11,
            554.79,
            554.47,
            554.14,
            553.82,
            553.5,
            553.18,
            552.85,
            552.53,
            552.21,
            551.89,
            551.57,
            551.25,
            550.93,
            550.61,
            550.29,
            549.97,
            549.65,
            549.33,
            549.01,
            548.7,
            547.11,
            544.27,
            541.45,
            538.66,
            535.88,
            533.13,
            530.4,
            527.69,
            525.0,
            522.33,
            519.68,
            517.05,
            514.44,
            511.85,
            509.29,
            506.73,
            504.2,
            501.69,
            499.2,
            496.72,
            494.27,
            491.83,
            489.41,
            487.0,
            484.62,
            482.25,
            479.9,
            477.57,
            475.25,
            472.95,
            470.67,
            468.4,
            466.15,
            463.92,
            461.7,
            459.5,
            457.31,
            455.14,
            452.99,
            450.85,
            448.72,
            446.61,
            444.52,
            442.44,
            440.37,
            438.32,
            436.28,
            434.26,
            432.25,
            430.26,
            428.28,
            426.31,
            424.36,
            422.42,
            420.49,
            418.5,
            415.21,
            411.46,
            407.77,
            404.12,
            400.53,
            396.98,
            393.48,
            390.03,
            386.62,
            383.25,
            379.93,
            376.66,
            373.42,
            370.23,
            367.07,
            363.96,
            360.89,
            357.85,
            354.86,
            351.9,
            348.97,
            346.09,
            343.24,
            340.42,
            337.64,
            334.89,
            332.18,
            329.5,
            326.85,
            324.23,
            321.65,
            319.09,
            316.57,
            314.08,
            311.61,
            309.17,
            306.77,
            304.39,
            302.04,
            299.71,
            297.41,
            295.14,
            292.89,
            290.67,
            288.48,
            286.31,
            284.16,
            282.04,
            279.94,
            277.87,
            275.82,
            273.79,
            271.78,
            269.79,
            267.83,
            265.89,
            263.97,
            262.07,
            260.19,
            258.33,
            256.49,
            254.67,
            252.87,
            251.08,
            249.32,
            247.58,
            245.85,
            244.14,
            242.45,
            240.78,
            239.12,
            237.48,
            235.86,
            234.26,
            232.67,
            231.09,
            229.54,
            228.0,
            226.47,
            224.96,
            223.46,
            221.98,
            220.52,
            219.07,
            217.63,
            216.21,
            214.8,
            213.4,
            212.02,
            210.65,
            209.29,
            207.95,
            206.62,
            205.31,
            204.0,
            202.71,
            201.43,
            200.16,
            198.91,
            197.66,
            196.43,
            195.21,
            194.0,
            192.8,
            191.62,
            190.44,
            189.27,
            188.12,
            186.97,
            185.84,
            184.72,
            183.6,
            182.5,
            181.41,
            180.32,
            179.25,
            178.19,
            177.13,
            176.09,
            175.05,
            174.02,
            173.0,
            171.99,
            170.99,
            170.0,
            169.02,
            168.04,
            167.08,
            166.12,
            165.17,
            164.23,
            163.29,
            162.37,
            161.45,
            160.54,
            159.64,
            158.74,
            157.86,
            156.98,
            156.1,
            155.24,
            154.38,
            153.53,
            152.69,
            151.85,
            151.02,
            150.2,
            149.38,
            148.57,
            147.77,
            146.97,
            146.18,
            145.39,
            144.62,
            143.84,
            143.08,
            142.32,
            141.57,
            140.82,
            140.08,
            139.34,
            138.61,
            137.89,
            137.17,
            136.46,
            135.75,
            135.05,
            134.35,
            133.66,
            132.97,
            132.29,
            131.62,
            130.95,
            130.28,
            129.62,
            128.97,
            128.32,
            127.67,
            127.03,
            126.4,
            125.77,
            125.14,
            124.52,
            123.9,
            123.29,
            122.68,
            122.08,
            121.48,
            120.89,
            120.3,
            119.71,
            119.13,
            118.55,
            117.98,
            117.41,
            116.85,
            116.29,
            115.73,
            115.18,
            114.63,
            114.08,
            113.54,
            113.0,
            112.47,
            111.94,
            111.42,
            110.89,
            110.38,
            109.86,
            109.35,
            108.84,
            108.34,
            107.84,
            107.34,
            106.85,
            106.36,
            105.87,
            105.39,
            104.91,
            104.43,
            103.95,
            103.48,
            102.78,
            101.86,
            100.95,
            100.05,
            99.169,
            98.295,
            97.433,
            96.581,
            95.741,
            94.912,
            94.093,
            93.285,
            92.488,
            91.7,
            90.923,
            90.155,
            89.398,
            88.649,
            87.91,
            87.18,
            86.46,
            85.748,
            85.045,
            84.35,
            83.664,
            82.986,
            82.317,
            81.656,
            81.002,
            80.356,
            79.718,
            79.088,
            78.465,
            77.849,
            77.241,
            76.64,
            76.045,
            75.458,
            74.877,
            74.303,
            73.736,
            73.175,
            72.621,
            72.072,
            71.53,
            70.994,
            70.464,
            69.94,
            69.422,
            68.909,
            68.403,
            67.901,
            67.406,
            66.915,
            66.43,
            65.95,
            65.476,
            65.006,
            64.542,
            64.082,
            63.628,
            63.178,
            62.733,
            62.292,
            61.857,
            61.425,
            60.999,
            60.577,
            60.159,
            59.745,
            59.336,
            58.931,
            58.53,
            58.133,
            57.74,
            57.351,
            56.966,
            56.585,
            56.207,
            55.834,
            55.464,
            55.098,
            54.735,
            54.376,
            54.021,
            53.669,
            53.32,
            52.975,
            52.633,
            52.294,
            51.959,
            51.627,
            51.298,
            50.972,
            50.649,
            50.33,
            50.013,
            49.7,
            49.389,
            49.081,
            48.776,
            48.474,
            48.175,
            47.878,
            47.584,
            47.293,
            47.005,
            46.719,
            46.436,
            46.155,
            45.877,
            45.601,
            45.328,
            45.058,
            44.789,
            44.523,
            44.26,
            43.999,
            43.74,
            43.483,
            43.229,
            42.977,
            42.727,
            42.479,
            42.233,
            41.99,
            41.749,
            41.509,
            41.272,
            41.037,
            40.804,
            40.572,
            40.343,
            40.116,
            39.89,
            39.667,
            39.445,
            39.225,
            39.007,
            38.791,
            38.577,
            38.364,
            38.153,
            37.944,
            37.737,
            37.531,
            37.327,
            37.125,
            36.924,
            36.725,
            36.527,
            36.332,
            36.137,
            35.944,
            35.753,
            35.563,
            35.375,
            35.189,
            35.003,
            34.82,
            34.637,
            34.456,
            34.277,
            34.099,
            33.922,
            33.747,
            33.573,
            33.4,
            33.229,
            33.059,
            32.89,
            32.723,
            32.556,
            32.392,
            32.228,
            32.065,
            31.904,
            31.744,
            31.586,
            31.428,
            31.272,
            31.116,
            30.962,
            30.809,
            30.658,
            30.507,
            30.357,
            30.209,
            30.061,
            29.915,
            29.77,
            29.626,
            29.483,
            29.34,
            29.199,
            29.059,
            28.92,
            28.782,
            28.645,
            28.509,
            28.374,
            28.24,
            28.106,
            27.974,
            27.843,
            27.712,
            27.583,
            27.454,
            27.326,
            27.2,
            27.074,
            26.949,
            26.824,
            26.701,
            26.579,
            26.457,
            26.336,
            26.216,
            26.097,
            25.978,
            25.861,
            25.744,
            25.593,
            25.367,
            25.141,
            24.918,
            24.697,
            24.48,
            24.266,
            24.054,
            23.845,
            23.639,
            23.436,
            23.235,
            23.037,
            22.841,
            22.647,
            22.457,
            22.268,
            22.082,
            21.898,
            21.717,
            21.538,
            21.361,
            21.186,
            21.013,
            20.843,
            20.674,
            20.508,
            20.343,
            20.181,
            20.02,
            19.861,
            19.704,
            19.55,
            19.396,
            19.245,
            19.096,
            18.948,
            18.802,
            18.657,
            18.514,
            18.373,
            18.234,
            18.096,
            17.959,
            17.824,
            17.691,
            17.559,
            17.429,
            17.3,
            17.172,
            17.046,
            16.922,
            16.798,
            16.676,
            16.556,
            16.436,
            16.318,
            16.201,
            16.086,
            15.971,
            15.858,
            15.746,
            15.635,
            15.526,
            15.417,
            15.31,
            15.204,
            15.099,
            14.995,
            14.892,
            14.79,
            14.689,
            14.589,
            14.491,
            14.393,
            14.296,
            14.2,
            14.105,
            14.011,
            13.918,
            13.826,
            13.735,
            13.645,
            13.555,
            13.467,
            13.379,
            13.293,
            13.207,
            13.122,
            13.037,
            12.954,
            12.871,
            12.789,
            12.708,
            12.628,
            12.548,
            12.469,
            12.391,
            12.314,
            12.237,
            12.161,
            12.086,
            12.012,
            11.938,
            11.865,
            11.792,
            11.72,
            11.649,
            11.579,
            11.509,
            11.439,
            11.356,
            11.224,
            11.091,
            10.961,
            10.833,
            10.707,
            10.583,
            10.461,
            10.342,
            10.224,
            10.109,
            9.9952,
            9.8835,
            9.7737,
            9.6657,
            9.5595,
            9.455,
            9.3522,
            9.2511,
            9.1517,
            9.0538,
            8.9575,
            8.8627,
            8.7694,
            8.6776,
            8.5872,
            8.4982,
            8.4106,
            8.3243,
            8.2394,
            8.1558,
            8.0734,
            7.9922,
            7.9123,
            7.8336,
            7.756,
            7.6796,
            7.6043,
            7.5301,
            7.457,
            7.385,
            7.314,
            7.244,
            7.175,
            7.107,
            7.04,
            6.9739,
            6.9087,
            6.8444,
            6.781,
            6.7185,
            6.6569,
            6.5961,
            6.5362,
            6.477,
            6.4187,
            6.3611,
            6.3043,
            6.2483,
            6.193,
            6.1384,
            6.0846,
            6.0314,
            5.979,
            5.9272,
            5.8761,
            5.8257,
            5.7759,
            5.7267,
            5.6782,
            5.6303,
            5.583,
            5.5363,
            5.4901,
            5.4446,
            5.3996,
            5.3551,
            5.3112,
            5.2679,
            5.2251,
            5.1827,
            5.1409,
            5.0997,
            5.0589,
            5.0186,
            4.9787,
            4.9394,
            4.9005,
            4.862,
            4.8241,
            4.7865,
            4.7494,
            4.7127,
            4.6765,
            4.6407,
            4.6052,
            4.5702,
            4.5356,
            4.5014,
            4.4675,
            4.4341,
            4.401,
            4.3682,
            4.3359,
            4.3039,
            4.2722,
            4.2409,
            4.21,
            4.1794,
            4.1491,
            4.1191,
            4.076,
            3.9696,
            3.8592,
            3.7533,
            3.6518,
            3.5543,
            3.4607,
            3.3707,
            3.2842,
            3.2009,
            3.1208,
            3.0437,
            2.9694,
            2.8978,
            2.8287,
            2.7621,
            2.6978,
            2.6357,
            2.5758,
            2.5178,
            2.4618,
            2.4077,
            2.3553,
            2.3046,
            2.2555,
            2.208,
            2.1619,
            2.1173,
            2.0741,
            2.0321,
            1.9915,
            1.952,
            1.9137,
            1.8765,
            1.8404,
            1.8053,
            1.7712,
            1.7381,
            1.7059,
            1.6746,
            1.6441,
            1.6144,
            1.5856,
            1.5575,
            1.5302,
            1.5035,
            1.4776,
            1.4523,
            1.4277,
            1.4037,
            1.3803,
            1.3574,
            1.3352,
            1.3134,
            1.2922,
            1.2715,
            1.2514,
            1.2316,
            1.2124,
            1.1936,
            1.1752,
            1.1572,
            1.1397,
            1.1225,
            1.1058,
            1.0894,
            1.0734,
            1.0577,
            1.0423,
            1.0273,
            1.0127,
            0.99828,
            0.98421,
            0.97044,
            0.95695,
            0.94375,
            0.93081,
            0.91814,
            0.90572,
            0.89356,
            0.88164,
            0.86996,
            0.8585,
            0.84727,
            0.83627,
            0.82547,
            0.81488,
            0.80449,
            0.79431,
            0.78431,
            0.7745,
            0.76487,
            0.75543,
            0.74615,
            0.73705,
            0.72811,
            0.71933,
            0.71072,
            0.70225,
            0.69394,
            0.68577,
            0.67774,
            0.66986,
            0.66211,
            0.6545,
            0.64701,
            0.63966,
            0.63243,
            0.62532,
            0.61833,
            0.61145,
            0.60016,
            0.55698,
            0.51242,
            0.47301,
            0.43798,
            0.4067,
            0.37866,
            0.35341,
            0.33062,
            0.30996,
            0.29117,
            0.27405,
            0.25839,
            0.24403,
            0.23085,
            0.2187,
            0.20748,
            0.19711,
            0.1875,
            0.17857,
            0.17026,
            0.16252,
            0.1553,
            0.14855,
            0.14223,
            0.1363,
            0.13074,
            0.12551,
            0.12059,
            0.11595,
            0.11158,
            0.10744,
            0.10354,
            0.09984,
            0.096337,
            0.093015,
            0.089862,
            0.086867,
            0.084019,
            0.081309,
            0.078728,
            0.076268,
            0.073921,
            0.071681,
            0.069542,
            0.067497,
            0.06554,
            0.063668,
            0.061875,
            0.060156,
            0.058508,
            0.056927,
            0.055409,
            0.053951,
            0.052549,
            0.051202,
            0.049906,
            0.048658,
            0.047457,
            0.046299,
            0.045184,
            0.044108,
            0.04307,
            0.042069,
            0.041102,
            0.040167,
            0.039265,
            0.038392,
            0.037549,
            0.036732,
            0.035942,
            0.035178,
            0.034437,
            0.03372,
            0.033025,
            0.032351,
            0.031697,
            0.031063,
            0.030448,
            0.029851,
            0.029271,
            0.028709,
            0.028162,
            0.02763,
            0.027114,
            0.026612,
            0.026124,
            0.025649,
            0.025186,
            0.024737,
            0.024299,
            0.023873,
            0.023458,
            0.023053,
            0.022659,
            0.022275,
            0.021901,
            0.021536,
            0.02118,
            0.020832,
            0.020494,
            0.020163,
            0.019841,
            0.019526,
            0.019218,
            0.018918,
            0.018625,
            0.018338,
            0.018058,
            0.017785,
            0.017517,
            0.017256,
            0.017,
            0.01675,
            0.016506,
            0.016266,
            0.016032,
            0.015803,
            0.015579,
            0.01536,
            0.015145,
            0.014935,
            0.014729,
            0.014527,
            0.014329,
            0.014136,
            0.013946,
            0.01376,
            0.013578,
            0.013399,
            0.013224,
            0.013052,
            0.012884,
            0.012718,
            0.012556,
            0.012398,
            0.012242,
            0.012089,
            0.011938,
            0.011791,
            0.011646,
            0.011504,
            0.011365,
            0.011228,
            0.011093,
            0.010961,
            0.010832,
            0.010704,
            0.010579,
            0.010456,
            0.010335,
            0.010216,
            0.0101,
            0.0099849,
            0.009872,
            0.0097611,
            0.0096521,
            0.0095448,
            0.0094393,
            0.0093356,
            0.0092336,
            0.0091332,
            0.0090345,
            0.0089373,
            0.0088418,
            0.0087477,
            0.0086551,
            0.008564,
            0.0084744,
            0.0083861,
            0.0082992,
            0.0082136,
            0.0081294,
            0.0080464,
            0.0079647,
            0.0078843,
            0.007805,
            0.007727,
            0.0076501,
            0.0075744,
            0.0074998,
            0.0074262,
            0.0073538,
            0.0072824,
            0.007212,
            0.0071427,
            0.0070743,
            0.007007,
            0.0069405,
            0.0068751,
            0.0068105,
            0.0067468,
            0.0066841,
            0.0066222
          ],
          [
            -13.079,
            -35.746,
            -12.042,
            -84.326,
            7.9919,
            64.281,
            35.574,
            -61.246,
            60.715,
            4.961,
            46.81,
            -50.027,
            17.892,
            2.8323,
            28.577,
            14.218,
            9.3608,
            -56.636,
            15.273,
            110.62,
            5.4542,
            9.937,
            -28.912,
            44.295,
            119.37,
            33.693,
            33.115,
            -39.795,
            21.984,
            5.936,
            29.121,
            -37.621,
            60.47,
            25.558,
            51.704,
            22.998,
            -39.034,
            35.268,
            42.262,
            -71.5,
            -79.767,
            4.5133,
            -45.768,
            -98.221,
            -12.029,
            -4.3791,
            -73.634,
            32.645,
            27.28,
            -57.431,
            17.717,
            -7.6021,
            79.116,
            1.8336,
            -48.072,
            -6.2829,
            14.762,
            0.31758,
            48.778,
            124.2,
            -23.017,
            30.763,
            12.036,
            37.475,
            30.007,
            39.866,
            -7.8762,
            47.932,
            190.93,
            231.99,
            62.276,
            -177.42,
            -443.56,
            -31.215,
            77.992,
            220.88,
            -301.71,
            -0.62807,
            154.19,
            -155.44,
            -142.35,
            -206.47,
            51.86,
            -183.79,
            -88.619,
            233.35,
            -59.149,
            242.86,
            446.26,
            288.86,
            -73.048,
            213.22,
            53.855,
            -1.1777,
            26.324,
            95.935,
            296.78,
            513.89,
            -115.48,
            28.906,
            -11.906,
            369.03,
            302.33,
            146.08,
            -238.74,
            -96.862,
            27.639,
            86.082,
            116.52,
            13.555,
            -125.64,
            116.26,
            167.27,
            -2.2885,
            93.058,
            -28.933,
            -23.092,
            -69.598,
            -54.601,
            39.528,
            -59.823,
            53.11,
            76.246,
            73.256,
            9.9624,
            38.976,
            32.701,
            -318.37,
            337.42,
            193.57,
            -261.61,
            481.84,
            13.244,
            -4.4889,
            193.58,
            -86.238,
            -263.71,
            396.71,
            -223.18,
            293.95,
            -199.0,
            357.91,
            -46.71,
            -197.24,
            82.169,
            165.04,
            292.63,
            224.72,
            62.75,
            544.64,
            -56.028,
            250.47,
            -315.53,
            -24.194,
            322.38,
            257.58,
            -21.664,
            481.41,
            245.68,
            148.49,
            236.46,
            388.43,
            222.7,
            250.84,
            632.8,
            239.87,
            318.69,
            153.73,
            -17.857,
            -280.62,
            243.26,
            -61.627,
            201.85,
            -247.55,
            -294.96,
            -372.73,
            -1.3664,
            -5.2461,
            85.474,
            63.103,
            -147.38,
            -17.914,
            250.29,
            201.84,
            235.01,
            -68.425,
            111.85,
            231.13,
            -5.4461,
            257.06,
            370.46,
            72.967,
            235.22,
            -108.62,
            272.1,
            -44.087,
            -216.46,
            13.877,
            -182.84,
            -36.998,
            207.35,
            -125.16,
            -31.451,
            146.54,
            -134.4,
            -185.42,
            288.72,
            -267.27,
            75.428,
            67.186,
            73.996,
            81.106,
            -60.308,
            -3.6635,
            369.52,
            -180.2,
            213.16,
            122.44,
            -494.4,
            -226.41,
            62.279,
            159.67,
            -54.736,
            -369.61,
            -371.08,
            130.48,
            157.68,
            112.97,
            -496.44,
            -306.28,
            246.23,
            -55.208,
            -39.686,
            148.39,
            -58.07,
            22.661,
            92.974,
            32.421,
            18.738,
            -94.33,
            -24.417,
            61.439,
            -49.546,
            -6.8157,
            77.784,
            32.271,
            178.98,
            149.09,
            198.12,
            107.95,
            0.019906,
            136.95,
            -24.804,
            -86.522,
            203.02,
            120.9,
            21.878,
            49.746,
            164.94,
            54.331,
            109.76,
            -67.726,
            -25.879,
            -90.437,
            -28.525,
            -2.9821,
            -33.687,
            -84.202,
            -1.7109,
            15.725,
            -44.381,
            -3.34,
            88.381,
            51.138,
            27.884,
            20.252,
            32.47,
            41.864,
            111.61,
            -216.09,
            -5.6915,
            -36.117,
            115.45,
            80.755,
            20.557,
            16.452,
            35.066,
            -172.44,
            41.013,
            -114.3,
            -98.846,
            16.504,
            -104.92,
            -5.9408,
            -63.527,
            -17.796,
            -1.0331,
            -141.25,
            -63.919,
            68.17,
            27.399,
            -13.479,
            -61.196,
            90.043,
            -7.6274,
            9.3722,
            -101.6,
            -78.248,
            -50.83,
            -47.701,
            70.426,
            73.063,
            -49.225,
            -78.055,
            44.912,
            -39.718,
            134.21,
            -60.725,
            -35.477,
            -10.199,
            65.887,
            95.781,
            16.606,
            -46.54,
            110.77,
            16.26,
            -43.263,
            -52.45,
            -56.354,
            -11.182,
            -35.593,
            -30.717,
            -52.19,
            77.675,
            -94.488,
            44.604,
            -82.399,
            -30.737,
            52.746,
            -11.809,
            104.3,
            80.947,
            33.955,
            31.641,
            36.96,
            9.1644,
            85.024,
            -75.839,
            110.21,
            6.1725,
            -36.793,
            -199.27,
            45.747,
            -24.717,
            -126.94,
            3.4535,
            123.12,
            67.887,
            -25.064,
            79.903,
            72.051,
            -50.332,
            33.239,
            -60.666,
            -17.221,
            143.87,
            18.788,
            87.682,
            -74.114,
            67.841,
            45.088,
            6.297,
            185.43,
            21.876,
            -46.299,
            133.16,
            -70.748,
            -79.664,
            8.4269,
            -26.619,
            -23.443,
            67.465,
            102.45,
            -2.3917,
            32.712,
            -28.863,
            -67.772,
            -35.194,
            -170.15,
            -134.03,
            -78.054,
            24.605,
            111.57,
            10.951,
            29.335,
            179.6,
            -10.017,
            10.956,
            59.747,
            16.783,
            -35.734,
            163.16,
            -58.641,
            107.09,
            -194.63,
            82.644,
            -38.166,
            -3.2096,
            41.586,
            36.294,
            41.582,
            109.14,
            46.664,
            -152.68,
            -19.47,
            -101.93,
            -36.492,
            -24.432,
            -55.557,
            86.211,
            -43.357,
            -99.137,
            8.0104,
            78.951,
            -40.972,
            62.391,
            47.075,
            70.752,
            33.775,
            148.09,
            47.957,
            56.021,
            74.132,
            -211.08,
            37.64,
            10.715,
            -145.87,
            -39.089,
            -0.49475,
            -69.854,
            -10.816,
            40.121,
            -134.72,
            77.745,
            -34.814,
            117.59,
            -26.079,
            10.859,
            193.56,
            -178.77,
            63.672,
            25.191,
            116.1,
            -105.53,
            61.297,
            22.467,
            25.695,
            161.48,
            -73.994,
            7.9058,
            -6.9511,
            45.848,
            16.838,
            29.933,
            -112.6,
            150.76,
            97.232,
            -62.72,
            -33.482,
            -118.01,
            23.396,
            -40.274,
            -1.3746,
            -62.845,
            -117.06,
            38.605,
            -43.668,
            -34.515,
            14.112,
            118.04,
            -35.169,
            -63.478,
            10.878,
            31.144,
            -147.24,
            -120.41,
            -68.387,
            -145.37,
            -17.05,
            13.697,
            -144.3,
            -161.07,
            -139.12,
            -320.16,
            70.312,
            -387.19,
            -65.383,
            -232.73,
            385.54,
            520.92,
            -380.53,
            260.13,
            140.77,
            306.18,
            206.21,
            147.98,
            157.48,
            365.65,
            253.68,
            369.31,
            43.327,
            -197.09,
            -44.316,
            -273.53,
            171.82,
            -303.78,
            599.93,
            40.449,
            -256.84,
            -79.637,
            -207.85,
            -99.605,
            97.673,
            -192.25,
            -500.96,
            -46.984,
            -25.199,
            82.123,
            -168.79,
            101.48,
            -89.47,
            176.17,
            -63.093,
            67.935,
            51.44,
            43.655,
            36.88,
            34.11,
            19.98,
            -129.27,
            26.068,
            54.953,
            23.19,
            67.804,
            -27.003,
            167.33,
            -103.69,
            -113.85,
            19.84,
            101.18,
            -90.144,
            -6.1145,
            10.494,
            7.2749,
            23.743,
            129.17,
            6.8015,
            58.996,
            106.69,
            126.33,
            48.312,
            -71.998,
            116.09,
            17.031,
            -102.54,
            118.97,
            -36.355,
            35.109,
            122.36,
            51.908,
            -15.392,
            -31.879,
            -64.809,
            82.333,
            55.977,
            -22.101,
            -121.03,
            -29.813,
            121.75,
            37.828,
            14.041,
            -6.4378,
            -68.481,
            9.1934,
            65.857,
            -8.3413,
            -109.3,
            -97.486,
            -0.063613,
            47.688,
            -68.972,
            -6.4935,
            16.841,
            55.769,
            51.324,
            43.85,
            22.376,
            162.19,
            -20.814,
            27.763,
            -70.009,
            85.873,
            -111.75,
            6.1584,
            -6.9605,
            19.348,
            -87.566,
            -13.597,
            -32.527,
            39.192,
            -61.293,
            -9.2959,
            40.957,
            9.93,
            46.395,
            -14.794,
            9.9195,
            21.412,
            -76.225,
            40.998,
            -49.255,
            85.342,
            -7.0895,
            95.536,
            7.7994,
            -3.3315,
            -80.868,
            40.299,
            228.08,
            22.92,
            135.22,
            57.436,
            -41.395,
            -16.142,
            -33.012,
            -4.2647,
            126.63,
            91.721,
            195.07,
            119.29,
            127.71,
            153.29,
            -98.79,
            69.854,
            37.71,
            117.05,
            103.4,
            219.19,
            6.3326,
            167.42,
            237.38,
            116.91,
            289.91,
            112.47,
            212.07,
            52.44,
            65.217,
            188.95,
            236.79,
            230.92,
            315.43,
            359.57,
            401.97,
            556.23,
            346.46,
            656.72,
            722.31,
            881.43,
            795.55,
            1120.3,
            1258.2,
            1899.2,
            2094.3,
            2572.6,
            2576.8,
            3200.2,
            2919.0,
            2499.3,
            2259.2,
            1939.2,
            1689.6,
            1326.2,
            1327.0,
            977.08,
            843.94,
            646.89,
            703.43,
            337.08,
            467.15,
            361.35,
            346.11,
            220.27,
            227.04,
            250.8,
            255.38,
            256.03,
            234.05,
            121.86,
            89.982,
            174.63,
            194.6,
            233.91,
            104.29,
            198.89,
            -38.589,
            131.51,
            163.95,
            174.11,
            -43.973,
            -20.007,
            77.596,
            0.3625,
            40.241,
            -33.235,
            143.04,
            185.46,
            17.949,
            27.134,
            -15.84,
            24.421,
            -15.632,
            -2.4095,
            67.905,
            106.27,
            -28.401,
            173.2,
            103.85,
            -16.032,
            76.1,
            -35.656,
            -101.2,
            -22.691,
            99.998,
            89.458,
            75.039,
            70.831,
            66.21,
            -14.245,
            27.165,
            -9.2318,
            -71.996,
            -78.77,
            40.883,
            172.9,
            -50.025,
            88.999,
            76.747,
            -18.235,
            73.034,
            -58.058,
            -22.857,
            -25.073,
            -59.309,
            -8.5191,
            132.47,
            96.383,
            108.15,
            23.586,
            -235.45,
            55.939,
            13.737,
            88.411,
            56.436,
            -66.358,
            -65.227,
            84.543,
            -37.255,
            -0.31392,
            30.647,
            -114.15,
            -71.291,
            42.657,
            115.16,
            -36.33,
            -39.22,
            -76.861,
            18.571,
            -18.167,
            -80.662,
            63.102,
            33.208,
            38.687,
            -94.593,
            24.269,
            16.33,
            -13.846,
            91.527,
            51.355,
            -29.973,
            72.954,
            -132.99,
            -189.43,
            35.332,
            -12.876,
            -56.912,
            -46.855,
            107.69,
            137.82,
            92.977,
            6.6131,
            -53.713,
            73.006,
            -69.077,
            82.022,
            12.469,
            -2.8013,
            26.302,
            11.112,
            33.867,
            111.69,
            7.5419,
            1.7511,
            74.975,
            -32.07,
            50.06,
            11.218,
            2.2109,
            -35.995,
            -8.3214,
            66.788,
            -63.749,
            -87.106,
            -97.8,
            -30.102,
            16.297,
            48.441,
            48.876,
            9.7596,
            -25.906,
            -62.889,
            68.042,
            -33.706,
            -3.89,
            -34.582,
            -8.8136,
            8.3901,
            28.583,
            47.488,
            12.547,
            -118.54,
            -63.801,
            91.416,
            -39.471,
            29.168,
            99.997,
            53.783,
            9.1988,
            33.951,
            68.954,
            101.59,
            10.905,
            13.854,
            -26.163,
            -65.963,
            95.503,
            -54.066,
            46.331,
            41.872,
            -16.935,
            -70.098,
            21.06,
            12.495,
            -63.947,
            -10.644,
            -70.291,
            -38.651,
            60.655,
            19.902,
            7.7679,
            28.843,
            -17.911,
            6.447,
            -70.213,
            43.6,
            -88.688,
            -50.025,
            -84.143,
            -27.801,
            -10.503,
            16.926,
            26.005,
            -35.518,
            -3.5479,
            -87.368,
            10.712,
            21.955,
            4.6553,
            -41.615,
            -35.427,
            -23.343,
            -43.71,
            12.31,
            -131.17,
            -8.8273,
            171.13,
            -74.878,
            106.01,
            6.1861,
            -88.628,
            -15.889,
            -14.615,
            -41.814,
            85.804,
            -79.623,
            67.19,
            84.386,
            29.491,
            57.402,
            -132.92,
            45.931,
            -165.83,
            167.58,
            52.46,
            79.377,
            30.099,
            84.573,
            15.452,
            -2.7982,
            -15.542,
            20.315,
            37.119,
            -68.972,
            -9.0535,
            67.08,
            -45.635,
            -6.1225,
            40.98,
            -8.922,
            56.596,
            -6.5084,
            26.977,
            67.359,
            -13.561,
            -37.654,
            18.952,
            3.0449,
            24.04,
            -76.19,
            90.669,
            -32.065,
            125.26,
            73.629,
            20.454,
            -1.5696,
            -27.353,
            96.538,
            -34.133,
            103.9,
            18.949,
            24.25,
            50.835,
            24.814,
            -19.241,
            19.323,
            95.678,
            -49.446,
            59.508,
            27.794,
            33.43,
            15.718,
            21.328,
            15.612,
            -59.025,
            -15.871,
            90.029,
            20.855,
            4.794,
            -12.28,
            131.96,
            -92.857,
            95.152,
            139.41,
            61.711,
            22.769,
            139.48,
            81.777,
            -30.234,
            97.432,
            101.52,
            -85.653,
            62.945,
            -9.4206,
            -100.45,
            82.48,
            21.37,
            -27.875,
            41.665,
            43.434,
            67.669,
            59.481,
            10.016,
            -50.489,
            -12.538,
            -36.439,
            -51.423,
            19.439,
            27.53,
            -62.038,
            -64.351,
            53.102,
            23.828,
            -15.278,
            -58.747,
            -38.261,
            -61.525,
            15.845,
            -34.77,
            -40.264,
            -9.4097,
            -16.139,
            91.814,
            10.093,
            -28.543,
            -31.122,
            -72.823,
            -10.576,
            -6.9529,
            -4.9645,
            42.304,
            -68.79,
            31.833,
            70.896,
            63.491,
            67.666,
            -141.16,
            18.968,
            -59.076,
            -67.313,
            -82.522,
            -53.112,
            25.352,
            20.855,
            30.196,
            11.694,
            51.998,
            -16.884,
            -26.834,
            44.976,
            111.46,
            21.286,
            73.821,
            -22.264,
            -71.232,
            58.262,
            -18.891,
            46.111,
            2.0949,
            59.999,
            65.331,
            86.683,
            -45.653,
            -74.658,
            -22.552,
            0.0092215,
            -99.441,
            -43.329,
            94.983,
            -24.631,
            -38.905,
            58.874,
            101.77,
            79.132,
            18.36,
            62.634,
            -61.827,
            26.041,
            -55.117,
            -79.789,
            -41.532,
            16.142,
            29.14,
            -3.8351,
            -33.964,
            -55.7,
            -85.666,
            -51.295,
            7.7782,
            -61.113,
            17.356,
            0.37778,
            91.874,
            -34.202,
            -22.358,
            -24.816,
            70.822,
            17.491,
            96.9,
            4.0489,
            -12.725,
            65.355,
            -29.63,
            36.058,
            78.242,
            54.09,
            59.089,
            73.284,
            -97.354,
            -31.283,
            1.5062,
            2.2524,
            3.6518,
            -26.378,
            -17.606,
            6.376,
            -32.752,
            -75.143,
            -7.4359,
            -5.7828,
            30.375,
            -2.5768,
            -34.049,
            9.846,
            24.525,
            -45.975,
            -0.1207,
            27.732,
            -63.969,
            -10.728,
            22.139,
            -50.614,
            93.941,
            -52.888,
            -10.938,
            126.74,
            121.01,
            -43.685,
            33.433,
            19.507,
            -126.91,
            36.623,
            4.361,
            -65.474,
            -32.603,
            82.712,
            -84.583,
            55.741,
            19.27,
            27.809,
            27.018,
            24.102,
            -18.759,
            15.934,
            45.166,
            -16.657,
            -21.295,
            -12.367,
            -31.862,
            -36.353,
            51.427,
            -65.522,
            -2.5257,
            7.5054,
            4.8662,
            55.254,
            -31.679,
            30.348,
            -53.872,
            -67.993,
            -31.807,
            -30.629,
            4.9206,
            26.555,
            76.513,
            -14.768,
            67.48,
            -47.689,
            6.6313,
            -27.776,
            30.157,
            -32.786,
            39.387,
            42.718,
            20.64,
            9.4937,
            21.502,
            40.933,
            -5.8777,
            49.472,
            20.589,
            44.34,
            -3.4173,
            64.863,
            -8.726,
            -89.577,
            17.315,
            34.599,
            -43.994,
            -47.545,
            -85.046,
            91.812,
            2.9266,
            38.699,
            -19.144,
            111.76,
            -25.911,
            56.701,
            76.372,
            -19.04,
            -38.364,
            37.327,
            -16.267,
            45.758,
            19.396,
            112.07,
            1.0192,
            -93.45,
            25.635,
            17.723,
            -30.969,
            34.732,
            8.6851,
            56.444,
            -24.586,
            27.332,
            -32.008,
            -106.67,
            -63.199,
            -14.662,
            10.712,
            14.877,
            -20.477,
            -43.148,
            -12.559,
            16.957,
            -14.115,
            -73.951,
            -10.826,
            -11.253,
            -69.239,
            -31.927,
            -17.902,
            59.031,
            58.067,
            -5.676,
            20.309,
            55.694,
            -62.311,
            -86.815,
            35.323,
            -2.9503,
            9.2775,
            13.859,
            10.316,
            35.725,
            33.166,
            141.8,
            24.481,
            -12.832,
            15.278,
            -17.223,
            -24.624,
            -0.21465,
            30.546,
            12.541,
            15.378,
            -35.718,
            14.773,
            58.454,
            -5.9759,
            32.801,
            42.916,
            35.359,
            41.869,
            -10.967,
            4.1985,
            -13.774,
            17.086,
            13.056,
            12.324,
            12.605,
            32.991,
            57.773,
            -0.41465,
            0.59532,
            25.169,
            -29.98,
            61.581,
            -0.46556,
            57.627,
            70.737,
            -55.161,
            36.689,
            69.755,
            -24.322,
            7.5965,
            38.921,
            -27.551,
            5.7424,
            13.824,
            -14.73,
            43.902,
            14.79,
            -10.449,
            -17.146,
            -62.508,
            46.574,
            69.552,
            -6.8137,
            9.0401,
            54.574,
            29.979,
            59.027,
            50.1,
            -0.55791,
            57.987,
            67.081,
            39.09,
            4.8652,
            -46.417,
            53.5,
            8.9718,
            65.87,
            49.804,
            45.523,
            45.477,
            114.67,
            66.93,
            13.829,
            37.847,
            1.3612,
            8.1407,
            50.292,
            20.905,
            56.669,
            49.121,
            23.679,
            -21.333,
            37.571,
            13.778,
            129.2,
            45.575,
            79.901,
            -4.2384,
            45.023,
            -91.884,
            40.435,
            2.2724,
            98.703,
            55.3,
            34.72,
            74.344,
            2.6288,
            -17.411,
            83.054,
            -72.509,
            18.493,
            14.574,
            45.573,
            66.06,
            53.56,
            75.291,
            -4.9281,
            46.926,
            102.55,
            -47.477,
            -11.123,
            73.812,
            69.06,
            65.214,
            23.109,
            23.915,
            44.048,
            38.767,
            38.921,
            41.298,
            26.724,
            31.676,
            33.724,
            28.99,
            23.147,
            46.283,
            23.661,
            15.611,
            30.565,
            31.357,
            21.406,
            31.176,
            58.42,
            -9.4889,
            28.971,
            27.848,
            41.122,
            37.902,
            71.683,
            53.896,
            -8.6941,
            38.411,
            34.648,
            46.379,
            39.034,
            46.218,
            41.987,
            62.571,
            74.147,
            76.439,
            58.143,
            56.137,
            5.7978,
            46.577,
            50.408,
            24.776,
            57.773,
            59.486,
            35.872,
            56.644,
            43.45,
            94.308,
            48.026,
            69.514,
            56.501,
            71.121,
            16.774,
            46.72,
            99.97,
            76.559,
            68.515,
            49.093,
            87.694,
            80.72,
            74.06,
            90.731,
            60.003,
            95.902,
            87.598,
            23.071,
            45.354,
            70.727,
            67.711,
            76.275,
            -1.1395,
            71.021,
            43.376,
            95.357,
            53.755,
            43.008,
            37.649,
            17.636,
            40.219,
            41.972,
            92.813,
            103.55,
            80.742,
            115.88,
            91.315,
            92.544,
            128.11,
            37.064,
            139.81,
            79.043,
            33.839,
            51.439,
            47.502,
            121.03,
            82.002,
            -11.004,
            110.88,
            94.161,
            80.316,
            55.579,
            30.835,
            139.02,
            59.452,
            57.468,
            210.8,
            110.04,
            67.493,
            28.151,
            67.542,
            234.29,
            71.631,
            74.787,
            97.89,
            14.979,
            29.407,
            104.09,
            65.313,
            23.013,
            137.0,
            161.21,
            88.934,
            33.762,
            82.053,
            104.72,
            139.7,
            137.58,
            109.53,
            95.21,
            1.3315,
            19.004,
            97.839,
            49.2,
            86.817,
            58.469,
            164.98,
            86.297,
            172.26,
            216.53,
            64.272,
            60.964,
            114.51,
            97.327,
            137.63,
            176.62,
            126.18,
            81.451,
            281.4,
            -17.335,
            80.378,
            215.72,
            -92.358,
            135.76,
            335.8,
            258.12,
            254.66,
            250.46,
            158.36,
            153.83,
            106.54,
            69.458,
            185.88,
            -21.36,
            186.5,
            130.0,
            209.03,
            -225.89,
            135.54,
            455.07,
            81.033,
            64.871,
            272.75,
            -6.9345,
            -115.55,
            202.19,
            146.07,
            83.021,
            -26.996,
            367.73,
            -30.128,
            -38.818,
            158.91,
            53.706,
            51.511,
            -255.28,
            402.13,
            143.04,
            167.95,
            -169.59,
            122.71,
            276.01,
            271.96,
            500.15,
            152.37
          ],
          [
            33.087,
            33.569,
            35.151,
            38.273,
            39.038,
            40.851,
            42.339,
            47.58,
            46.029,
            48.263,
            44.894,
            45.122,
            45.725,
            45.004,
            43.956,
            43.81,
            49.542,
            48.188,
            48.634,
            49.703,
            50.895,
            51.623,
            49.8,
            54.259,
            58.004,
            59.465,
            54.192,
            52.288,
            52.452,
            51.921,
            54.33,
            52.271,
            53.086,
            54.627,
            54.05,
            53.439,
            53.336,
            53.477,
            55.528,
            54.225,
            54.527,
            56.553,
            55.272,
            56.48,
            55.439,
            56.87,
            59.135,
            56.216,
            58.89,
            57.405,
            58.761,
            59.691,
            56.421,
            58.634,
            60.375,
            61.657,
            61.598,
            59.319,
            58.228,
            57.866,
            60.136,
            59.943,
            61.458,
            62.98,
            58.807,
            59.848,
            59.487,
            62.554,
            175.14,
            181.14,
            190.64,
            189.23,
            190.56,
            182.71,
            189.97,
            176.44,
            180.32,
            177.91,
            177.7,
            177.86,
            178.35,
            175.98,
            169.42,
            178.04,
            169.08,
            165.93,
            180.32,
            174.42,
            179.05,
            176.46,
            179.76,
            185.93,
            173.5,
            181.41,
            169.37,
            192.1,
            188.68,
            187.38,
            179.33,
            185.15,
            168.88,
            187.58,
            185.46,
            181.72,
            201.71,
            188.02,
            177.86,
            180.29,
            181.59,
            188.45,
            197.58,
            195.86,
            177.15,
            59.673,
            63.129,
            62.665,
            60.073,
            63.468,
            67.707,
            60.789,
            62.961,
            59.781,
            63.962,
            65.227,
            63.433,
            64.766,
            63.778,
            180.84,
            191.66,
            183.63,
            196.93,
            186.55,
            184.27,
            199.32,
            183.62,
            192.63,
            191.8,
            204.0,
            195.01,
            182.64,
            199.43,
            197.79,
            183.07,
            183.84,
            175.47,
            175.8,
            198.51,
            191.15,
            191.73,
            187.72,
            197.01,
            188.61,
            193.11,
            205.21,
            209.0,
            198.12,
            198.5,
            183.43,
            200.39,
            194.23,
            189.16,
            217.7,
            197.79,
            188.6,
            213.36,
            190.56,
            195.73,
            186.56,
            188.2,
            197.88,
            192.0,
            183.71,
            187.52,
            186.18,
            208.98,
            187.73,
            183.6,
            206.05,
            200.18,
            191.71,
            190.05,
            188.19,
            194.97,
            187.51,
            195.58,
            191.79,
            191.13,
            210.71,
            207.84,
            261.54,
            259.83,
            256.54,
            212.68,
            197.98,
            220.21,
            207.92,
            185.89,
            193.85,
            184.33,
            194.64,
            190.28,
            197.27,
            183.63,
            192.73,
            192.09,
            201.7,
            185.66,
            193.21,
            185.57,
            172.72,
            211.66,
            193.92,
            203.51,
            197.65,
            201.04,
            183.03,
            193.15,
            186.37,
            201.34,
            196.48,
            190.25,
            190.63,
            195.41,
            203.91,
            214.8,
            193.34,
            179.68,
            192.53,
            217.27,
            206.39,
            193.41,
            63.595,
            66.038,
            64.098,
            66.544,
            69.036,
            65.534,
            67.757,
            68.588,
            67.242,
            65.072,
            65.749,
            65.911,
            68.634,
            66.808,
            66.833,
            70.705,
            70.608,
            69.762,
            67.134,
            71.065,
            72.76,
            67.578,
            79.436,
            69.927,
            67.056,
            72.218,
            68.793,
            68.764,
            72.3,
            67.994,
            72.739,
            67.805,
            67.142,
            69.978,
            70.187,
            69.628,
            69.947,
            72.601,
            70.005,
            70.716,
            72.878,
            68.905,
            69.465,
            69.345,
            70.275,
            69.754,
            70.666,
            70.357,
            70.615,
            68.83,
            70.413,
            70.776,
            70.813,
            70.069,
            68.255,
            70.311,
            76.136,
            73.769,
            73.402,
            77.008,
            72.512,
            73.282,
            75.606,
            70.485,
            74.207,
            71.533,
            70.638,
            72.523,
            77.215,
            74.529,
            73.831,
            75.924,
            78.308,
            72.04,
            73.041,
            73.135,
            72.78,
            76.336,
            75.275,
            76.329,
            78.715,
            75.053,
            73.488,
            72.808,
            76.011,
            78.506,
            80.927,
            77.287,
            77.253,
            79.276,
            74.544,
            76.141,
            73.801,
            75.35,
            73.698,
            77.325,
            73.496,
            81.937,
            76.845,
            80.487,
            75.107,
            73.435,
            80.074,
            77.791,
            74.953,
            76.314,
            76.027,
            81.862,
            81.329,
            81.3,
            79.461,
            76.56,
            79.02,
            78.461,
            73.5,
            76.821,
            76.46,
            75.171,
            81.192,
            75.463,
            82.019,
            78.987,
            77.875,
            79.306,
            76.527,
            79.564,
            81.745,
            74.54,
            74.139,
            79.581,
            75.013,
            80.509,
            80.701,
            78.184,
            74.798,
            78.724,
            79.91,
            78.44,
            80.392,
            77.812,
            76.976,
            80.645,
            76.447,
            78.497,
            79.039,
            85.092,
            81.841,
            79.589,
            76.163,
            78.758,
            82.387,
            79.255,
            83.839,
            82.79,
            79.726,
            83.29,
            85.378,
            82.404,
            79.087,
            77.768,
            85.04,
            84.253,
            81.622,
            85.133,
            79.832,
            82.205,
            87.329,
            79.77,
            84.919,
            81.609,
            83.398,
            84.829,
            81.111,
            82.461,
            81.276,
            82.571,
            87.146,
            82.126,
            79.573,
            81.008,
            83.202,
            84.318,
            85.683,
            83.071,
            87.402,
            77.152,
            81.499,
            82.109,
            82.296,
            85.949,
            91.636,
            82.837,
            90.196,
            85.089,
            91.675,
            95.515,
            89.927,
            91.452,
            85.557,
            81.122,
            81.397,
            86.32,
            88.049,
            89.457,
            88.51,
            97.97,
            84.391,
            83.415,
            82.729,
            83.425,
            94.6,
            86.664,
            86.032,
            87.57,
            86.629,
            80.678,
            81.822,
            80.988,
            88.029,
            85.418,
            82.798,
            85.464,
            89.11,
            82.364,
            90.843,
            85.571,
            87.055,
            83.548,
            87.978,
            86.716,
            83.314,
            82.496,
            87.756,
            84.443,
            95.26,
            82.428,
            90.724,
            85.558,
            93.622,
            84.389,
            89.76,
            96.505,
            88.016,
            87.664,
            86.881,
            91.547,
            95.36,
            88.488,
            85.658,
            93.941,
            88.49,
            89.381,
            92.488,
            88.399,
            96.214,
            86.044,
            84.072,
            86.34,
            250.65,
            242.12,
            254.75,
            291.63,
            250.34,
            250.74,
            254.84,
            296.3,
            247.5,
            264.69,
            235.6,
            272.88,
            247.49,
            237.67,
            256.2,
            231.59,
            273.12,
            252.83,
            257.21,
            258.91,
            270.08,
            255.67,
            242.61,
            254.04,
            242.12,
            242.12,
            244.02,
            254.74,
            242.96,
            246.29,
            263.02,
            248.74,
            250.98,
            249.23,
            239.7,
            249.63,
            88.75,
            94.031,
            89.114,
            92.019,
            92.132,
            87.965,
            87.694,
            90.396,
            85.103,
            84.268,
            83.139,
            90.451,
            93.684,
            85.779,
            85.823,
            84.17,
            96.623,
            96.091,
            95.112,
            96.206,
            83.802,
            88.987,
            85.604,
            85.998,
            90.336,
            94.034,
            90.489,
            85.312,
            87.632,
            93.86,
            89.427,
            91.455,
            89.151,
            92.059,
            92.027,
            94.605,
            88.466,
            89.889,
            93.007,
            87.807,
            89.3,
            92.907,
            86.666,
            89.816,
            89.611,
            86.692,
            91.699,
            94.557,
            91.134,
            95.578,
            87.766,
            89.319,
            90.675,
            88.251,
            90.46,
            87.784,
            62.624,
            62.433,
            62.674,
            61.622,
            62.286,
            63.978,
            63.611,
            63.194,
            64.795,
            64.182,
            63.562,
            62.534,
            66.749,
            63.354,
            64.07,
            62.998,
            66.627,
            64.258,
            64.353,
            65.945,
            63.143,
            65.509,
            67.663,
            67.276,
            64.088,
            65.819,
            68.139,
            65.769,
            65.041,
            65.148,
            64.195,
            66.243,
            68.19,
            68.336,
            64.503,
            67.979,
            67.953,
            66.645,
            66.336,
            63.442,
            63.662,
            64.667,
            65.455,
            66.16,
            66.316,
            66.871,
            63.854,
            68.677,
            65.554,
            66.898,
            66.248,
            68.597,
            66.437,
            68.022,
            67.015,
            67.766,
            67.386,
            68.548,
            66.089,
            66.946,
            67.663,
            67.514,
            71.19,
            70.443,
            68.0,
            68.723,
            71.186,
            69.797,
            71.845,
            70.873,
            65.985,
            69.072,
            70.613,
            73.716,
            69.295,
            70.601,
            76.141,
            72.888,
            70.608,
            71.35,
            77.612,
            75.022,
            78.458,
            76.317,
            82.114,
            84.973,
            84.909,
            85.197,
            99.069,
            95.888,
            121.19,
            133.0,
            160.91,
            169.47,
            230.21,
            186.71,
            170.62,
            146.15,
            130.87,
            111.46,
            102.19,
            101.2,
            88.083,
            84.174,
            84.66,
            85.189,
            78.784,
            79.681,
            75.849,
            75.083,
            75.873,
            75.491,
            73.313,
            75.78,
            84.144,
            72.827,
            71.218,
            72.922,
            72.005,
            74.532,
            71.246,
            71.485,
            76.923,
            73.661,
            74.347,
            73.06,
            69.454,
            74.58,
            73.372,
            72.512,
            76.007,
            73.915,
            71.984,
            74.478,
            72.262,
            71.763,
            72.025,
            73.732,
            72.89,
            71.417,
            74.419,
            72.283,
            72.705,
            71.249,
            73.936,
            71.768,
            74.754,
            75.186,
            72.745,
            75.912,
            74.243,
            73.463,
            72.974,
            72.282,
            76.101,
            72.773,
            73.354,
            72.198,
            72.081,
            73.353,
            72.501,
            71.658,
            69.442,
            75.21,
            72.58,
            72.026,
            72.319,
            72.752,
            72.324,
            75.305,
            73.931,
            80.744,
            79.58,
            75.922,
            77.48,
            72.48,
            78.019,
            77.444,
            76.774,
            79.478,
            74.154,
            74.519,
            72.461,
            75.925,
            78.552,
            75.473,
            74.59,
            77.464,
            76.127,
            76.221,
            77.06,
            75.184,
            79.899,
            78.143,
            77.043,
            76.357,
            78.486,
            74.301,
            77.673,
            75.122,
            77.774,
            76.001,
            78.312,
            77.329,
            84.63,
            76.686,
            73.76,
            75.574,
            74.295,
            73.192,
            80.625,
            81.084,
            75.902,
            75.957,
            76.557,
            79.591,
            78.066,
            74.602,
            73.879,
            75.934,
            75.992,
            76.065,
            54.41,
            52.763,
            56.866,
            53.551,
            53.716,
            54.512,
            54.433,
            53.695,
            56.626,
            54.839,
            55.108,
            54.696,
            54.304,
            55.603,
            53.325,
            55.257,
            55.047,
            55.381,
            56.688,
            57.574,
            56.374,
            55.299,
            56.408,
            55.564,
            57.346,
            58.263,
            58.378,
            54.694,
            56.03,
            57.521,
            58.471,
            57.29,
            57.622,
            55.669,
            55.845,
            57.542,
            55.475,
            56.857,
            56.148,
            57.399,
            58.636,
            56.862,
            57.722,
            59.628,
            58.716,
            57.975,
            59.199,
            57.995,
            59.118,
            57.188,
            60.625,
            59.46,
            56.907,
            58.564,
            57.006,
            59.572,
            57.644,
            57.037,
            58.63,
            61.06,
            59.086,
            57.886,
            58.317,
            57.327,
            59.762,
            59.623,
            58.083,
            61.548,
            62.075,
            58.795,
            59.004,
            58.155,
            60.169,
            59.374,
            58.191,
            61.174,
            60.859,
            58.27,
            59.091,
            60.826,
            59.192,
            59.73,
            61.775,
            59.922,
            60.139,
            58.844,
            61.954,
            59.393,
            59.73,
            64.196,
            62.375,
            58.894,
            60.102,
            63.541,
            59.338,
            60.391,
            63.54,
            62.609,
            60.462,
            61.657,
            61.135,
            62.851,
            61.248,
            60.033,
            63.499,
            62.741,
            62.188,
            62.989,
            63.286,
            63.824,
            61.924,
            62.395,
            62.135,
            61.883,
            63.965,
            64.998,
            61.915,
            62.588,
            64.737,
            61.659,
            62.438,
            63.323,
            62.994,
            66.818,
            61.299,
            63.097,
            61.683,
            62.104,
            64.011,
            62.419,
            63.34,
            63.08,
            65.112,
            63.053,
            66.915,
            64.122,
            61.744,
            63.547,
            65.209,
            62.536,
            63.558,
            67.062,
            64.952,
            62.134,
            64.428,
            63.799,
            65.68,
            65.166,
            64.781,
            67.333,
            65.82,
            65.348,
            63.044,
            66.849,
            63.927,
            66.022,
            71.397,
            65.619,
            64.735,
            66.402,
            65.341,
            68.459,
            63.701,
            63.868,
            65.337,
            67.982,
            66.892,
            65.403,
            65.467,
            65.528,
            65.299,
            65.585,
            65.375,
            65.218,
            68.32,
            67.056,
            66.182,
            65.393,
            68.359,
            65.991,
            64.935,
            67.844,
            65.222,
            66.573,
            69.553,
            68.676,
            67.569,
            68.764,
            72.183,
            67.587,
            66.49,
            70.128,
            67.611,
            66.08,
            67.68,
            68.884,
            68.432,
            70.072,
            67.962,
            72.207,
            65.845,
            68.165,
            67.482,
            66.768,
            68.215,
            67.435,
            71.691,
            68.032,
            66.747,
            72.342,
            68.062,
            68.234,
            69.362,
            70.862,
            69.794,
            68.639,
            66.871,
            68.639,
            68.117,
            68.245,
            71.618,
            69.43,
            58.408,
            50.004,
            49.347,
            48.958,
            48.65,
            48.811,
            47.903,
            48.643,
            48.877,
            48.329,
            49.105,
            48.585,
            49.674,
            48.805,
            49.243,
            49.749,
            50.418,
            50.793,
            49.198,
            48.615,
            50.948,
            49.368,
            51.173,
            50.677,
            50.345,
            54.801,
            49.099,
            51.973,
            50.356,
            50.464,
            52.009,
            51.195,
            50.331,
            51.47,
            51.522,
            52.191,
            51.288,
            51.357,
            50.27,
            50.94,
            53.038,
            51.311,
            51.524,
            51.372,
            52.86,
            51.57,
            51.779,
            51.244,
            51.144,
            52.827,
            51.685,
            52.134,
            53.105,
            53.909,
            52.583,
            52.887,
            53.761,
            53.369,
            52.61,
            52.388,
            53.428,
            54.488,
            53.271,
            52.939,
            53.11,
            54.089,
            53.814,
            53.97,
            52.358,
            53.926,
            52.317,
            53.875,
            54.32,
            53.499,
            53.731,
            57.68,
            53.939,
            54.85,
            53.648,
            54.64,
            54.823,
            56.859,
            54.808,
            53.724,
            55.749,
            56.291,
            55.642,
            55.123,
            54.232,
            56.23,
            55.841,
            57.037,
            56.111,
            56.715,
            54.305,
            57.331,
            55.672,
            57.026,
            56.749,
            55.846,
            57.488,
            57.863,
            56.958,
            57.317,
            55.273,
            56.626,
            57.551,
            56.744,
            56.705,
            56.747,
            56.512,
            49.155,
            39.733,
            40.775,
            40.951,
            40.674,
            40.755,
            40.505,
            41.776,
            40.75,
            42.051,
            41.338,
            41.641,
            40.86,
            41.635,
            41.94,
            41.897,
            42.487,
            41.743,
            42.026,
            42.285,
            42.985,
            42.552,
            42.496,
            42.648,
            42.832,
            43.204,
            41.654,
            42.767,
            42.218,
            43.658,
            42.949,
            44.118,
            43.968,
            43.275,
            43.492,
            43.406,
            43.646,
            43.821,
            43.979,
            44.89,
            43.967,
            44.127,
            44.198,
            44.343,
            45.557,
            44.332,
            45.114,
            44.824,
            44.985,
            45.2,
            44.945,
            45.782,
            44.91,
            45.546,
            45.314,
            45.669,
            46.061,
            46.022,
            47.607,
            46.701,
            46.684,
            46.063,
            46.281,
            47.746,
            46.549,
            47.794,
            46.333,
            46.676,
            47.616,
            47.557,
            46.827,
            48.144,
            47.112,
            46.197,
            47.911,
            48.42,
            47.39,
            48.252,
            48.689,
            47.911,
            48.21,
            49.042,
            48.441,
            48.564,
            49.575,
            48.53,
            49.488,
            48.539,
            49.753,
            48.633,
            49.827,
            50.526,
            49.759,
            50.268,
            49.945,
            49.86,
            50.101,
            52.418,
            49.359,
            50.78,
            49.96,
            50.062,
            49.413,
            50.071,
            50.26,
            52.179,
            51.817,
            49.563,
            50.799,
            50.983,
            52.55,
            41.066,
            25.504,
            25.743,
            26.074,
            26.073,
            26.464,
            26.387,
            26.156,
            27.093,
            26.777,
            26.959,
            27.529,
            27.404,
            27.636,
            27.604,
            28.119,
            28.079,
            28.644,
            28.638,
            28.775,
            29.225,
            29.258,
            29.406,
            29.145,
            29.943,
            30.078,
            30.054,
            30.06,
            30.355,
            30.285,
            31.15,
            30.903,
            31.057,
            31.564,
            31.385,
            31.845,
            32.005,
            31.363,
            31.89,
            32.329,
            32.486,
            32.334,
            32.928,
            32.294,
            32.706,
            32.82,
            33.77,
            33.401,
            33.712,
            33.53,
            34.711,
            34.549,
            34.651,
            34.86,
            34.785,
            35.793,
            35.108,
            35.127,
            35.372,
            35.629,
            35.248,
            35.785,
            35.719,
            36.605,
            36.389,
            36.823,
            36.875,
            36.392,
            36.333,
            37.234,
            37.401,
            37.165,
            37.272,
            37.713,
            37.452,
            37.824,
            38.35,
            38.606,
            38.45,
            39.332,
            38.656,
            39.039,
            39.684,
            39.284,
            39.407,
            39.241,
            39.152,
            39.617,
            39.635,
            40.141,
            40.342,
            39.905,
            40.44,
            40.585,
            42.172,
            41.324,
            41.098,
            41.696,
            41.735,
            41.913,
            41.395,
            41.664,
            41.878,
            41.777,
            41.655,
            42.056,
            43.043,
            44.097,
            43.589,
            43.718,
            43.549,
            133.3,
            15.446,
            15.767,
            16.13,
            16.452,
            16.753,
            17.097,
            17.556,
            17.889,
            18.148,
            18.532,
            18.865,
            19.292,
            19.519,
            123.62,
            19.991,
            20.006,
            20.236,
            20.397,
            20.258,
            20.279,
            20.114,
            20.133,
            20.129,
            19.94,
            19.782,
            19.695,
            19.668,
            126.09,
            19.256,
            19.227,
            18.93,
            18.823,
            18.633,
            18.542,
            18.496,
            18.412,
            18.718,
            18.704,
            18.621,
            18.692,
            18.663,
            124.48,
            18.704,
            18.817,
            18.954,
            19.28,
            19.362,
            19.378,
            19.655,
            19.736,
            19.922,
            20.1,
            20.358,
            20.699,
            21.019,
            130.69,
            21.349,
            21.492,
            22.287,
            22.523,
            22.601,
            23.076,
            23.228,
            23.927,
            24.105,
            24.653,
            24.615,
            25.049,
            25.697,
            131.43,
            26.248,
            26.739,
            27.114,
            27.216,
            27.681,
            28.557,
            28.934,
            29.243,
            30.671,
            30.745,
            30.631,
            31.819,
            32.044,
            137.29,
            32.54,
            32.943,
            33.877,
            33.987,
            34.589,
            35.922,
            37.288,
            37.282,
            38.107,
            39.581,
            40.118,
            39.714,
            138.58,
            39.947,
            41.324,
            41.9,
            42.532,
            44.703,
            45.107,
            44.484,
            45.899,
            45.934,
            46.964,
            47.076,
            46.657,
            49.059,
            136.81,
            49.371,
            50.581,
            52.015,
            53.986,
            51.921,
            55.544,
            55.811,
            56.669,
            56.146,
            57.466,
            56.825,
            59.79,
            58.41,
            148.08,
            62.153,
            63.118,
            73.868,
            67.341,
            64.504,
            67.865,
            66.084,
            68.289,
            72.468,
            70.771,
            71.296,
            73.955,
            74.109,
            150.41,
            77.705,
            79.544,
            75.463,
            82.61,
            87.718,
            90.105,
            100.91,
            87.885,
            110.46,
            87.847,
            84.434,
            83.681,
            92.978,
            186.35,
            92.403,
            102.41,
            98.384,
            98.774,
            103.93,
            106.73,
            119.19,
            110.62,
            117.76,
            139.8,
            109.97,
            118.84,
            115.35,
            174.77,
            133.62,
            119.59,
            121.67,
            124.98,
            133.65,
            167.96,
            117.66,
            135.06,
            126.58,
            141.92,
            141.6,
            376.68,
            260.24,
            221.39,
            149.27,
            155.3,
            281.16,
            152.88,
            335.77,
            165.6,
            160.82,
            212.99,
            170.72,
            236.37,
            244.51,
            1774.2
          ]
        ]
      }
    },
    "003": {
      "reaction": {
        "0": {
          "x4_code": "(28-NI-59(N,TOT),,SIG)",
          "0": {
            "code": [
              "28-NI-59",
              [
                "N,TOT"
              ],
              ",,SIG"
            ],
            "type": null,
            "target": "28-NI-59",
            "process": "N,TOT",
            "sf49": ",,SIG",
            "sf4": null,
            "sf5": null,
            "sf6": "SIG",
            "sf7": null,
            "sf8": null,
            "sf9": null
          },
          "type": null,
          "free_text": " Run ID: 8191"
        }
      },
      "extra_information": {
        "sample": {
          "0": [
            {
              "x4_code": null,
              "free_txt": [
                "NiO sample, 95.35% enriched in 59Ni.",
                "Sample thickness 9.099E-04 atoms/b",
                " (1/N = 1099 b/atom)."
              ]
            }
          ]
        }
      },
      "common": null,
      "data": {
        "heads": [
          "EN",
          "DATA",
          "DATA-ERR"
        ],
        "units": [
          "EV",
          "B",
          "B"
        ],
        "data": [
          [
            148360.0,
            136400.0,
            125830.0,
            116450.0,
            108080.0,
            100570.0,
            93828.0,
            87738.0,
            82223.0,
            77211.0,
            72645.0,
            68472.0,
            64648.0,
            61136.0,
            57903.0,
            54919.0,
            52161.0,
            49605.0,
            47232.0,
            45026.0,
            42971.0,
            41053.0,
            39261.0,
            37584.0,
            36012.0,
            34537.0,
            33150.0,
            31845.0,
            30616.0,
            29457.0,
            28362.0,
            27327.0,
            26348.0,
            25421.0,
            24541.0,
            23707.0,
            22914.0,
            22161.0,
            21444.0,
            20761.0,
            20110.0,
            19490.0,
            18898.0,
            18332.0,
            17791.0,
            17274.0,
            16779.0,
            16306.0,
            15851.0,
            15416.0,
            14998.0,
            14597.0,
            14212.0,
            13842.0,
            13487.0,
            13144.0,
            12815.0,
            12498.0,
            12192.0,
            11898.0,
            11614.0,
            11340.0,
            11076.0,
            10821.0,
            10574.0,
            10336.0,
            10106.0,
            9883.5,
            9668.2,
            9459.9,
            9258.2,
            9062.9,
            8873.8,
            8690.5,
            8512.8,
            8340.5,
            8173.4,
            8011.2,
            7853.9,
            7701.1,
            7552.7,
            7408.6,
            7268.6,
            7184.8,
            7154.8,
            7124.9,
            7095.2,
            7065.7,
            7036.4,
            7007.3,
            6978.4,
            6949.6,
            6921.0,
            6892.6,
            6864.4,
            6836.3,
            6808.4,
            6780.7,
            6753.1,
            6725.7,
            6698.5,
            6671.5,
            6644.6,
            6617.8,
            6591.3,
            6564.9,
            6538.6,
            6512.5,
            6486.6,
            6460.8,
            6435.2,
            6409.7,
            6384.4,
            6359.2,
            6334.2,
            6309.3,
            6284.6,
            6260.0,
            6235.5,
            6211.2,
            6187.1,
            6163.0,
            6139.2,
            6115.4,
            6091.8,
            6068.4,
            6045.0,
            6021.8,
            5998.8,
            5975.8,
            5953.0,
            5930.4,
            5907.8,
            5885.4,
            5863.1,
            5841.0,
            5818.9,
            5797.0,
            5775.2,
            5753.6,
            5732.0,
            5710.6,
            5689.3,
            5668.1,
            5647.1,
            5626.1,
            5605.3,
            5584.6,
            5564.0,
            5543.5,
            5487.8,
            5398.4,
            5311.1,
            5225.9,
            5142.8,
            5061.6,
            4982.3,
            4904.9,
            4829.3,
            4755.4,
            4683.2,
            4612.6,
            4543.6,
            4476.1,
            4435.6,
            4421.0,
            4406.5,
            4392.0,
            4377.7,
            4363.4,
            4349.1,
            4335.0,
            4320.9,
            4306.9,
            4292.9,
            4279.0,
            4265.2,
            4251.4,
            4237.8,
            4224.1,
            4210.6,
            4197.1,
            4183.7,
            4170.3,
            4157.0,
            4143.8,
            4130.6,
            4117.5,
            4104.4,
            4091.4,
            4078.5,
            4065.7,
            4052.9,
            4040.1,
            4027.4,
            4014.8,
            4002.3,
            3989.7,
            3977.3,
            3964.9,
            3952.6,
            3940.3,
            3928.1,
            3894.8,
            3841.3,
            3788.8,
            3737.4,
            3687.0,
            3637.6,
            3589.2,
            3541.8,
            3495.3,
            3449.7,
            3405.1,
            3361.2,
            3318.2,
            3276.1,
            3234.7,
            3194.1,
            3154.3,
            3115.2,
            3076.8,
            3039.1,
            3002.2,
            2965.9,
            2930.2,
            2895.2,
            2860.8,
            2827.0,
            2793.8,
            2761.2,
            2729.2,
            2697.7,
            2666.8,
            2636.4,
            2606.5,
            2577.1,
            2548.2,
            2519.8,
            2491.8,
            2464.3,
            2437.3,
            2410.7,
            2384.6,
            2358.9,
            2333.5,
            2308.6,
            2284.1,
            2260.0,
            2236.3,
            2212.9,
            2189.9,
            2167.2,
            2144.9,
            2123.0,
            2101.4,
            2080.1,
            2059.1,
            2038.4,
            2018.1,
            1998.0,
            1978.3,
            1958.8,
            1939.7,
            1920.8,
            1902.2,
            1883.8,
            1865.7,
            1847.9,
            1830.4,
            1813.0,
            1796.0,
            1779.1,
            1762.5,
            1746.2,
            1730.0,
            1714.1,
            1698.4,
            1682.9,
            1667.7,
            1652.6,
            1637.7,
            1623.1,
            1608.6,
            1594.3,
            1580.2,
            1566.3,
            1552.6,
            1539.1,
            1525.7,
            1512.5,
            1499.5,
            1486.7,
            1474.0,
            1461.4,
            1449.1,
            1436.9,
            1424.8,
            1412.9,
            1401.2,
            1389.5,
            1378.1,
            1366.8,
            1355.6,
            1344.5,
            1333.6,
            1322.8,
            1312.2,
            1301.6,
            1291.2,
            1281.0,
            1270.8,
            1260.8,
            1250.9,
            1241.1,
            1231.4,
            1221.8,
            1212.4,
            1203.0,
            1193.8,
            1184.7,
            1175.6,
            1166.7,
            1157.9,
            1149.1,
            1140.5,
            1132.0,
            1123.5,
            1115.2,
            1107.0,
            1098.8,
            1090.7,
            1082.7,
            1074.9,
            1067.1,
            1059.3,
            1051.7,
            1044.1,
            1036.7,
            1029.3,
            1021.9,
            1014.7,
            1007.5,
            1000.5,
            993.45,
            986.51,
            979.65,
            972.85,
            966.13,
            959.48,
            952.89,
            946.37,
            939.92,
            933.53,
            927.21,
            920.96,
            914.76,
            908.63,
            902.56,
            896.55,
            890.6,
            884.71,
            878.88,
            873.1,
            867.38,
            861.72,
            856.11,
            850.56,
            845.06,
            839.62,
            834.23,
            828.88,
            823.59,
            818.35,
            813.16,
            808.02,
            802.93,
            797.89,
            792.89,
            787.94,
            783.04,
            778.18,
            773.37,
            768.6,
            763.87,
            759.19,
            754.56,
            749.96,
            745.41,
            740.89,
            736.42,
            731.99,
            727.6,
            723.25,
            718.93,
            714.66,
            710.42,
            706.22,
            702.06,
            697.94,
            693.85,
            689.79,
            685.78,
            681.79,
            677.85,
            673.93,
            670.05,
            666.21,
            662.39,
            658.61,
            654.86,
            651.15,
            647.46,
            643.81,
            640.18,
            636.59,
            633.03,
            629.49,
            625.99,
            622.52,
            619.07,
            615.65,
            612.27,
            608.91,
            605.57,
            602.27,
            598.99,
            595.74,
            592.51,
            589.31,
            586.14,
            582.99,
            579.87,
            576.77,
            573.7,
            570.65,
            567.62,
            564.62,
            561.65,
            558.69,
            555.76,
            552.86,
            549.97,
            547.11,
            544.27,
            541.45,
            538.66,
            535.88,
            533.13,
            530.4,
            527.69,
            525.0,
            522.33,
            519.68,
            517.05,
            514.44,
            511.85,
            509.29,
            506.73,
            504.2,
            501.69,
            499.2,
            496.72,
            494.27,
            491.83,
            489.41,
            487.0,
            484.62,
            482.25,
            479.9,
            477.57,
            475.25,
            472.95,
            470.67,
            468.4,
            466.15,
            463.92,
            461.7,
            459.5,
            457.31,
            455.14,
            452.99,
            450.85,
            448.72,
            446.61,
            444.52,
            442.44,
            440.37,
            438.32,
            436.28,
            434.26,
            432.25,
            430.26,
            428.28,
            426.31,
            424.36,
            422.42,
            420.49,
            418.5,
            415.21,
            411.46,
            407.77,
            404.12,
            400.53,
            396.98,
            393.48,
            390.03,
            386.62,
            383.25,
            379.93,
            376.66,
            373.42,
            370.23,
            367.07,
            363.96,
            360.89,
            357.85,
            354.86,
            351.9,
            348.97,
            346.09,
            343.24,
            340.42,
            337.64,
            334.89,
            332.18,
            329.5,
            326.85,
            324.23,
            321.65,
            319.09,
            316.57,
            314.08,
            311.61,
            309.17,
            306.77,
            304.39,
            302.04,
            299.71,
            297.41,
            295.14,
            292.89,
            290.67,
            288.48,
            286.31,
            284.16,
            282.04,
            279.94,
            277.87,
            275.82,
            273.79,
            271.78,
            269.79,
            267.83,
            265.89,
            263.97,
            262.07,
            260.19,
            258.33,
            256.49,
            254.67,
            252.87,
            251.08,
            249.32,
            247.58,
            245.85,
            244.14,
            242.45,
            240.78,
            239.12,
            237.48,
            235.86,
            234.26,
            232.67,
            231.09,
            229.54,
            228.0,
            226.47,
            224.96,
            223.46,
            221.98,
            220.52,
            219.07,
            217.63,
            216.21,
            214.8,
            213.4,
            212.02,
            210.65,
            209.29,
            207.95,
            206.62,
            205.31,
            204.0,
            202.71,
            201.43,
            200.16,
            198.91,
            197.66,
            196.43,
            195.21,
            194.0,
            192.8,
            191.62,
            190.44,
            189.27,
            188.12,
            186.97,
            185.84,
            184.72,
            183.6,
            182.5,
            181.41,
            180.32,
            179.25,
            178.19,
            177.13,
            176.09,
            175.05,
            174.02,
            173.0,
            171.99,
            170.99,
            170.0,
            169.02,
            168.04,
            167.08,
            166.12,
            165.17,
            164.23,
            163.29,
            162.37,
            161.45,
            160.54,
            159.64,
            158.74,
            157.86,
            156.98,
            156.1,
            155.24,
            154.38,
            153.53,
            152.69,
            151.85,
            151.02,
            150.2,
            149.38,
            148.57,
            147.77,
            146.97,
            146.18,
            145.39,
            144.62,
            143.84,
            143.08,
            142.32,
            141.57,
            140.82,
            140.08,
            139.34,
            138.61,
            137.89,
            137.17,
            136.46,
            135.75,
            135.05,
            134.35,
            133.66,
            132.97,
            132.29,
            131.62,
            130.95,
            130.28,
            129.62,
            128.97,
            128.32,
            127.67,
            127.03,
            126.4,
            125.77,
            125.14,
            124.52,
            123.9,
            123.29,
            122.68,
            122.08,
            121.48,
            120.89,
            120.3,
            119.71,
            119.13,
            118.55,
            117.98,
            117.41,
            116.85,
            116.29,
            115.73,
            115.18,
            114.63,
            114.08,
            113.54,
            113.0,
            112.47,
            111.94,
            111.42,
            110.89,
            110.38,
            109.86,
            109.35,
            108.84,
            108.34,
            107.84,
            107.34,
            106.85,
            106.36,
            105.87,
            105.39,
            104.91,
            104.43,
            103.95,
            103.48,
            102.78,
            101.86,
            100.95,
            100.05,
            99.169,
            98.295,
            97.433,
            96.581,
            95.741,
            94.912,
            94.093,
            93.285,
            92.488,
            91.7,
            90.923,
            90.155,
            89.398,
            88.649,
            87.91,
            87.18,
            86.46,
            85.748,
            85.045,
            84.35,
            83.664,
            82.986,
            82.317,
            81.656,
            81.002,
            80.356,
            79.718,
            79.088,
            78.465,
            77.849,
            77.241,
            76.64,
            76.045,
            75.458,
            74.877,
            74.303,
            73.736,
            73.175,
            72.621,
            72.072,
            71.53,
            70.994,
            70.464,
            69.94,
            69.422,
            68.909,
            68.403,
            67.901,
            67.406,
            66.915,
            66.43,
            65.95,
            65.476,
            65.006,
            64.542,
            64.082,
            63.628,
            63.178,
            62.733,
            62.292,
            61.857,
            61.425,
            60.999,
            60.577,
            60.159,
            59.745,
            59.336,
            58.931,
            58.53,
            58.133,
            57.74,
            57.351,
            56.966,
            56.585,
            56.207,
            55.834,
            55.464,
            55.098,
            54.735,
            54.376,
            54.021,
            53.669,
            53.32,
            52.975,
            52.633,
            52.294,
            51.959,
            51.627,
            51.298,
            50.972,
            50.649,
            50.33,
            50.013,
            49.7,
            49.389,
            49.081,
            48.776,
            48.474,
            48.175,
            47.878,
            47.584,
            47.293,
            47.005,
            46.719,
            46.436,
            46.155,
            45.877,
            45.601,
            45.328,
            45.058,
            44.789,
            44.523,
            44.26,
            43.999,
            43.74,
            43.483,
            43.229,
            42.977,
            42.727,
            42.479,
            42.233,
            41.99,
            41.749,
            41.509,
            41.272,
            41.037,
            40.804,
            40.572,
            40.343,
            40.116,
            39.89,
            39.667,
            39.445,
            39.225,
            39.007,
            38.791,
            38.577,
            38.364,
            38.153,
            37.944,
            37.737,
            37.531,
            37.327,
            37.125,
            36.924,
            36.725,
            36.527,
            36.332,
            36.137,
            35.944,
            35.753,
            35.563,
            35.375,
            35.189,
            35.003,
            34.82,
            34.637,
            34.456,
            34.277,
            34.099,
            33.922,
            33.747,
            33.573,
            33.4,
            33.229,
            33.059,
            32.89,
            32.723,
            32.556,
            32.392,
            32.228,
            32.065,
            31.904,
            31.744,
            31.586,
            31.428,
            31.272,
            31.116,
            30.962,
            30.809,
            30.658,
            30.507,
            30.357,
            30.209,
            30.061,
            29.915,
            29.77,
            29.626,
            29.483,
            29.34,
            29.199,
            29.059,
            28.92,
            28.782,
            28.645,
            28.509,
            28.374,
            28.24,
            28.106,
            27.974,
            27.843,
            27.712,
            27.583,
            27.454,
            27.326,
            27.2,
            27.074,
            26.949,
            26.824,
            26.701,
            26.579,
            26.457,
            26.336,
            26.216,
            26.097,
            25.978,
            25.861,
            25.744,
            25.593,
            25.367,
            25.141,
            24.918,
            24.697,
            24.48,
            24.266,
            24.054,
            23.845,
            23.639,
            23.436,
            23.235,
            23.037,
            22.841,
            22.647,
            22.457,
            22.268,
            22.082,
            21.898,
            21.717,
            21.538,
            21.361,
            21.186,
            21.013,
            20.843,
            20.674,
            20.508,
            20.343,
            20.181,
            20.02,
            19.861,
            19.704,
            19.55,
            19.396,
            19.245,
            19.096,
            18.948,
            18.802,
            18.657,
            18.514,
            18.373,
            18.234,
            18.096,
            17.959,
            17.824,
            17.691,
            17.559,
            17.429,
            17.3,
            17.172,
            17.046,
            16.922,
            16.798,
            16.676,
            16.556,
            16.436,
            16.318,
            16.201,
            16.086,
            15.971,
            15.858,
            15.746,
            15.635,
            15.526,
            15.417,
            15.31,
            15.204,
            15.099,
            14.995,
            14.892,
            14.79,
            14.689,
            14.589,
            14.491,
            14.393,
            14.296,
            14.2,
            14.105,
            14.011,
            13.918,
            13.826,
            13.735,
            13.645,
            13.555,
            13.467,
            13.379,
            13.293,
            13.207,
            13.122,
            13.037,
            12.954,
            12.871,
            12.789,
            12.708,
            12.628,
            12.548,
            12.469,
            12.391,
            12.314,
            12.237,
            12.161,
            12.086,
            12.012,
            11.938,
            11.865,
            11.792,
            11.72,
            11.649,
            11.579,
            11.509,
            11.439,
            11.356,
            11.224,
            11.091,
            10.961,
            10.833,
            10.707,
            10.583,
            10.461,
            10.342,
            10.224,
            10.109,
            9.9952,
            9.8835,
            9.7737,
            9.6657,
            9.5595,
            9.455,
            9.3522,
            9.2511,
            9.1517,
            9.0538,
            8.9575,
            8.8627,
            8.7694,
            8.6776,
            8.5872,
            8.4982,
            8.4106,
            8.3243,
            8.2394,
            8.1558,
            8.0734,
            7.9922,
            7.9123,
            7.8336,
            7.756,
            7.6796,
            7.6043,
            7.5301,
            7.457,
            7.385,
            7.314,
            7.244,
            7.175,
            7.107,
            7.04,
            6.9739,
            6.9087,
            6.8444,
            6.781,
            6.7185,
            6.6569,
            6.5961,
            6.5362,
            6.477,
            6.4187,
            6.3611,
            6.3043,
            6.2483,
            6.193,
            6.1384,
            6.0846,
            6.0314,
            5.979,
            5.9272,
            5.8761,
            5.8257,
            5.7759,
            5.7267,
            5.6782,
            5.6303,
            5.583,
            5.5363,
            5.4901,
            5.4446,
            5.3996,
            5.3551,
            5.3112,
            5.2679,
            5.2251,
            5.1827,
            5.1409,
            5.0997,
            5.0589,
            5.0186,
            4.9787,
            4.9394,
            4.9005,
            4.862,
            4.8241,
            4.7865,
            4.7494,
            4.7127,
            4.6765,
            4.6407,
            4.6052,
            4.5702,
            4.5356,
            4.5014,
            4.4675,
            4.4341,
            4.401,
            4.3682,
            4.3359,
            4.3039,
            4.2722,
            4.2409,
            4.21,
            4.1794,
            4.1491,
            4.1191,
            4.076,
            3.9696,
            3.8592,
            3.7533,
            3.6518,
            3.5543,
            3.4607,
            3.3707,
            3.2842,
            3.2009,
            3.1208,
            3.0437,
            2.9694,
            2.8978,
            2.8287,
            2.7621,
            2.6978,
            2.6357,
            2.5758,
            2.5178,
            2.4618,
            2.4077,
            2.3553,
            2.3046,
            2.2555,
            2.208,
            2.1619,
            2.1173,
            2.0741,
            2.0321,
            1.9915,
            1.952,
            1.9137,
            1.8765,
            1.8404,
            1.8053,
            1.7712,
            1.7381,
            1.7059,
            1.6746,
            1.6441,
            1.6144,
            1.5856,
            1.5575,
            1.5302,
            1.5035,
            1.4776,
            1.4523,
            1.4277,
            1.4037,
            1.3803,
            1.3574,
            1.3352,
            1.3134,
            1.2922,
            1.2715,
            1.2514,
            1.2316,
            1.2124,
            1.1936,
            1.1752,
            1.1572,
            1.1397,
            1.1225,
            1.1058,
            1.0894,
            1.0734,
            1.0577,
            1.0423,
            1.0273,
            1.0127,
            0.99828,
            0.98421,
            0.97044,
            0.95695,
            0.94375,
            0.93081,
            0.91814,
            0.90572,
            0.89356,
            0.88164,
            0.86996,
            0.8585,
            0.84727,
            0.83627,
            0.82547,
            0.81488,
            0.80449,
            0.79431,
            0.78431,
            0.7745,
            0.76487,
            0.75543,
            0.74615,
            0.73705,
            0.72811,
            0.71933,
            0.71072,
            0.70225,
            0.69394,
            0.68577,
            0.67774,
            0.66986,
            0.66211,
            0.6545,
            0.64701,
            0.63966,
            0.63243,
            0.62532,
            0.61833,
            0.61145,
            0.60016,
            0.55698,
            0.51242,
            0.47301,
            0.43798,
            0.4067,
            0.37866,
            0.35341,
            0.33062,
            0.30996,
            0.29117,
            0.27405,
            0.25839,
            0.24403,
            0.23085,
            0.2187,
            0.20748,
            0.19711,
            0.1875,
            0.17857,
            0.17026,
            0.16252,
            0.1553,
            0.14855,
            0.14223,
            0.1363,
            0.13074,
            0.12551,
            0.12059,
            0.11595,
            0.11158,
            0.10744,
            0.10354,
            0.09984,
            0.096337,
            0.093015,
            0.089862,
            0.086867,
            0.084019,
            0.081309,
            0.078728,
            0.076268,
            0.073921,
            0.071681,
            0.069542,
            0.067497,
            0.06554,
            0.063668,
            0.061875,
            0.060156,
            0.058508,
            0.056927,
            0.055409,
            0.053951,
            0.052549,
            0.051202,
            0.049906,
            0.048658,
            0.047457,
            0.046299,
            0.045184,
            0.044108,
            0.04307,
            0.042069,
            0.041102,
            0.040167,
            0.039265,
            0.038392,
            0.037549,
            0.036732,
            0.035942,
            0.035178,
            0.034437,
            0.03372,
            0.033025,
            0.032351,
            0.031697,
            0.031063,
            0.030448,
            0.029851,
            0.029271,
            0.028709,
            0.028162,
            0.02763,
            0.027114,
            0.026612,
            0.026124,
            0.025649,
            0.025186,
            0.024737,
            0.024299,
            0.023873,
            0.023458,
            0.023053,
            0.022659,
            0.022275,
            0.021901,
            0.021536,
            0.02118,
            0.020832,
            0.020494,
            0.020163,
            0.019841,
            0.019526,
            0.019218,
            0.018918,
            0.018625,
            0.018338,
            0.018058,
            0.017785,
            0.017517,
            0.017256,
            0.017,
            0.01675,
            0.016506,
            0.016266,
            0.016032,
            0.015803,
            0.015579,
            0.01536,
            0.015145,
            0.014935,
            0.014729,
            0.014527,
            0.014329,
            0.014136,
            0.013946,
            0.01376,
            0.013578,
            0.013399,
            0.013224,
            0.013052,
            0.012884,
            0.012718,
            0.012556,
            0.012398,
            0.012242,
            0.012089,
            0.011938,
            0.011791,
            0.011646,
            0.011504,
            0.011365,
            0.011228,
            0.011093,
            0.010961,
            0.010832,
            0.010704,
            0.010579,
            0.010456,
            0.010335,
            0.010216,
            0.0101,
            0.0099849,
            0.009872,
            0.0097611,
            0.0096521,
            0.0095448,
            0.0094393,
            0.0093356,
            0.0092336,
            0.0091332,
            0.0090345,
            0.0089373,
            0.0088418,
            0.0087477,
            0.0086551,
            0.008564,
            0.0084744,
            0.0083861,
            0.0082992,
            0.0082136,
            0.0081294,
            0.0080464,
            0.0079647,
            0.0078843,
            0.007805,
            0.007727,
            0.0076501,
            0.0075744,
            0.0074998,
            0.0074262,
            0.0073538,
            0.0072824,
            0.007212,
            0.0071427,
            0.0070743,
            0.007007,
            0.0069405,
            0.0068751,
            0.0068105,
            0.0067468,
            0.0066841,
            0.0066222
          ],
          [
            8.7497,
            -24.82,
            -7.2819,
            36.403,
            16.729,
            6.5742,
            0.68814,
            -3.871,
            -18.232,
            -43.462,
            -7.337,
            4.7705,
            44.386,
            10.548,
            -30.905,
            5.1644,
            -1.0163,
            -4.4348,
            -25.098,
            37.306,
            25.293,
            37.172,
            41.831,
            4.4467,
            18.506,
            -25.973,
            18.5,
            -5.5834,
            47.057,
            -1.8507,
            15.123,
            27.799,
            -48.795,
            -15.543,
            10.594,
            27.429,
            34.339,
            2.9428,
            26.239,
            1.3685,
            -28.736,
            12.462,
            -23.961,
            11.619,
            23.762,
            29.989,
            37.365,
            12.858,
            -21.506,
            43.786,
            -34.86,
            -9.9937,
            -2.488,
            10.574,
            -23.682,
            35.63,
            -17.477,
            -34.382,
            -56.958,
            62.204,
            64.497,
            22.93,
            -6.1867,
            -18.632,
            9.7307,
            -21.115,
            11.604,
            -18.364,
            37.006,
            21.939,
            -20.54,
            67.748,
            -25.708,
            3.7584,
            -24.349,
            45.552,
            20.273,
            -10.403,
            -8.8523,
            5.7622,
            36.818,
            62.308,
            -12.398,
            -77.77,
            -113.61,
            -30.696,
            -122.61,
            102.1,
            76.794,
            22.359,
            -40.169,
            100.58,
            -104.5,
            113.12,
            -25.553,
            -16.547,
            154.26,
            -123.07,
            2.6183,
            60.919,
            99.943,
            30.519,
            87.268,
            145.52,
            81.292,
            158.88,
            50.201,
            189.04,
            -26.73,
            153.37,
            33.432,
            17.662,
            166.71,
            276.71,
            189.05,
            242.38,
            177.0,
            176.8,
            153.86,
            190.97,
            10.322,
            155.14,
            54.863,
            118.07,
            159.38,
            18.056,
            122.62,
            -15.51,
            -58.498,
            -24.039,
            -33.742,
            8.387,
            56.458,
            29.796,
            59.129,
            59.458,
            -2.6703,
            55.082,
            58.655,
            198.63,
            4.8856,
            163.16,
            50.272,
            -22.454,
            62.073,
            74.764,
            96.591,
            7.1463,
            -32.315,
            -58.35,
            -6.7544,
            -34.19,
            66.875,
            52.148,
            36.854,
            21.307,
            -12.615,
            57.507,
            -1.2534,
            26.679,
            44.205,
            49.387,
            11.68,
            14.26,
            23.797,
            38.239,
            26.008,
            67.794,
            -16.21,
            72.284,
            113.96,
            2.8455,
            3.4205,
            43.919,
            171.85,
            98.03,
            23.889,
            266.87,
            165.16,
            15.254,
            249.0,
            275.28,
            199.2,
            154.86,
            113.73,
            203.64,
            203.64,
            5.0405,
            53.968,
            154.18,
            33.494,
            4.9267,
            157.25,
            27.868,
            182.45,
            -154.89,
            -112.32,
            -32.479,
            -4.7107,
            88.267,
            9.1935,
            -148.0,
            -59.993,
            -32.871,
            56.586,
            -24.058,
            -3.1587,
            49.327,
            17.146,
            -15.751,
            35.593,
            -12.152,
            -26.784,
            -18.983,
            5.9896,
            2.5395,
            -29.325,
            56.045,
            135.23,
            -28.159,
            95.049,
            13.175,
            7.422,
            -25.214,
            39.508,
            3.3598,
            -33.147,
            7.5501,
            -0.19064,
            30.429,
            58.905,
            -30.358,
            -20.967,
            10.963,
            59.944,
            17.827,
            14.389,
            -6.8712,
            12.837,
            6.8398,
            16.31,
            55.743,
            -3.3258,
            12.817,
            40.571,
            12.135,
            13.644,
            -11.229,
            15.739,
            -17.851,
            -27.623,
            44.094,
            14.305,
            55.198,
            12.033,
            87.325,
            -34.543,
            -61.339,
            1.4744,
            2.8483,
            -46.283,
            17.128,
            -37.224,
            17.029,
            84.528,
            30.377,
            18.586,
            -17.394,
            -0.24314,
            -0.025623,
            -45.079,
            -32.637,
            -6.6533,
            21.447,
            46.803,
            -12.442,
            -8.552,
            -22.327,
            49.906,
            46.163,
            16.967,
            22.957,
            23.11,
            -5.2351,
            -33.246,
            7.0848,
            -32.243,
            43.009,
            110.7,
            -31.857,
            11.29,
            -15.07,
            53.782,
            -65.885,
            84.066,
            -63.383,
            50.767,
            21.86,
            82.787,
            -8.3727,
            66.067,
            43.48,
            20.416,
            26.821,
            -43.87,
            5.3746,
            -44.425,
            -40.224,
            -40.277,
            -48.785,
            57.363,
            5.9797,
            -25.599,
            59.798,
            -47.351,
            6.6807,
            34.399,
            23.697,
            -75.403,
            -12.931,
            -34.013,
            46.438,
            2.4758,
            2.2861,
            40.949,
            35.612,
            45.959,
            23.14,
            -11.684,
            30.18,
            -39.928,
            -39.891,
            -15.149,
            -21.641,
            -48.272,
            0.50805,
            -57.193,
            -23.84,
            -26.459,
            -74.877,
            -1.6055,
            10.012,
            39.475,
            -6.0057,
            -13.505,
            -41.971,
            28.52,
            -63.018,
            -20.799,
            59.371,
            23.914,
            -20.985,
            -19.216,
            24.65,
            -5.5547,
            -10.98,
            16.688,
            78.622,
            84.014,
            -72.473,
            37.768,
            3.8108,
            -31.23,
            -36.486,
            -68.491,
            84.181,
            -8.74,
            -3.9695,
            -6.3757,
            17.818,
            38.889,
            42.485,
            -7.9605,
            1.2957,
            -10.177,
            -45.569,
            -36.75,
            -35.129,
            -38.894,
            17.719,
            57.592,
            12.075,
            -38.761,
            33.769,
            -30.654,
            -61.039,
            29.846,
            -100.12,
            72.986,
            19.448,
            -27.704,
            36.017,
            -48.748,
            20.342,
            -12.401,
            -62.199,
            40.214,
            0.086737,
            71.801,
            -8.0258,
            40.535,
            -19.787,
            -76.071,
            11.498,
            10.653,
            57.545,
            38.706,
            7.53,
            34.851,
            59.078,
            -16.462,
            1.483,
            -10.657,
            31.146,
            45.533,
            1.16,
            38.074,
            -11.459,
            -5.2494,
            48.19,
            38.156,
            -59.008,
            21.451,
            -168.52,
            -65.043,
            -21.154,
            97.714,
            102.61,
            100.38,
            -15.839,
            35.298,
            68.951,
            -128.22,
            21.507,
            26.353,
            67.373,
            18.444,
            16.554,
            25.183,
            -69.067,
            -20.542,
            56.638,
            -81.475,
            -4.5332,
            31.579,
            32.639,
            6.6415,
            77.378,
            66.773,
            17.423,
            -19.477,
            59.349,
            -19.906,
            -34.501,
            -24.804,
            0.73212,
            51.187,
            37.047,
            -83.785,
            -11.618,
            77.109,
            17.374,
            43.866,
            46.697,
            -9.072,
            2.2664,
            48.595,
            26.788,
            19.403,
            61.545,
            -65.84,
            -36.818,
            66.758,
            -2.5117,
            1.982,
            -5.4133,
            -34.056,
            67.708,
            -15.846,
            34.1,
            -52.645,
            53.844,
            12.275,
            41.981,
            30.263,
            48.471,
            6.7676,
            57.968,
            -38.602,
            48.579,
            44.892,
            20.527,
            -26.656,
            36.252,
            -47.923,
            7.8894,
            106.3,
            22.77,
            -17.702,
            -2.584,
            27.291,
            21.138,
            10.775,
            38.774,
            44.987,
            0.36088,
            -20.521,
            -12.63,
            5.2734,
            -12.516,
            12.896,
            26.489,
            -100.19,
            -13.653,
            21.153,
            -38.995,
            -42.687,
            -34.828,
            -4.5988,
            -6.8647,
            -40.761,
            -81.913,
            -4.3032,
            -9.2826,
            -104.47,
            -37.563,
            -85.345,
            -65.652,
            -14.206,
            0.80493,
            -14.536,
            -75.94,
            74.739,
            55.083,
            33.15,
            22.95,
            48.376,
            28.705,
            -25.429,
            -7.9561,
            -17.681,
            -9.0525,
            112.7,
            3.3448,
            50.75,
            78.584,
            123.37,
            27.377,
            80.813,
            29.955,
            31.102,
            117.92,
            129.4,
            70.528,
            30.691,
            68.678,
            56.136,
            54.711,
            37.563,
            51.681,
            43.654,
            55.768,
            102.74,
            86.84,
            126.52,
            131.45,
            120.3,
            77.365,
            125.81,
            126.39,
            115.78,
            158.72,
            169.27,
            189.01,
            164.85,
            174.86,
            163.89,
            204.94,
            270.28,
            403.87,
            342.95,
            460.77,
            445.9,
            570.4,
            693.78,
            773.69,
            945.42,
            1143.9,
            1428.0,
            1868.1,
            2078.4,
            2404.2,
            2760.7,
            2625.0,
            2780.1,
            2556.9,
            2330.6,
            2051.6,
            1650.2,
            1421.8,
            1130.0,
            975.77,
            691.4,
            686.95,
            605.54,
            636.06,
            434.85,
            372.58,
            416.75,
            327.45,
            236.9,
            257.49,
            266.75,
            257.44,
            190.04,
            226.93,
            114.46,
            176.64,
            236.55,
            88.612,
            118.12,
            71.855,
            73.358,
            106.16,
            102.11,
            119.58,
            58.683,
            101.71,
            111.37,
            66.348,
            33.257,
            31.175,
            91.866,
            1.6585,
            32.689,
            54.593,
            61.673,
            152.59,
            37.294,
            37.636,
            27.915,
            81.461,
            76.409,
            10.688,
            56.255,
            48.195,
            24.641,
            80.3,
            69.714,
            10.317,
            58.322,
            136.17,
            -70.639,
            -22.22,
            -37.319,
            24.802,
            15.41,
            -37.932,
            40.571,
            46.676,
            30.532,
            39.537,
            19.019,
            -26.701,
            -29.443,
            40.678,
            55.17,
            -26.335,
            15.774,
            84.275,
            26.798,
            110.92,
            64.35,
            46.224,
            45.281,
            78.028,
            -14.972,
            84.942,
            -15.298,
            39.541,
            2.7931,
            12.972,
            -29.662,
            -21.83,
            109.19,
            -22.169,
            33.362,
            74.939,
            26.551,
            35.434,
            13.476,
            55.38,
            94.619,
            20.448,
            81.645,
            86.759,
            30.159,
            4.7388,
            -28.713,
            78.752,
            8.7192,
            57.685,
            -24.914,
            57.5,
            67.716,
            -13.689,
            45.689,
            -43.635,
            42.029,
            70.525,
            12.825,
            101.23,
            39.667,
            -20.805,
            10.139,
            86.566,
            11.382,
            67.294,
            -26.133,
            -36.346,
            108.51,
            33.943,
            -27.849,
            25.125,
            50.063,
            10.871,
            30.397,
            16.278,
            46.398,
            19.579,
            -27.933,
            12.331,
            55.822,
            4.3384,
            50.801,
            89.13,
            -15.891,
            -37.124,
            22.83,
            47.877,
            -69.038,
            24.694,
            2.5963,
            -34.092,
            21.424,
            21.951,
            -10.597,
            13.232,
            -29.084,
            -0.69559,
            21.596,
            -38.802,
            -29.463,
            -13.893,
            23.309,
            -38.222,
            -9.7707,
            45.977,
            -23.471,
            18.127,
            46.443,
            34.982,
            73.719,
            37.853,
            60.808,
            44.889,
            49.931,
            38.805,
            13.904,
            0.0044269,
            2.5034,
            7.8029,
            5.5212,
            102.79,
            10.982,
            -42.337,
            5.0843,
            -51.709,
            -2.1303,
            16.334,
            55.904,
            71.458,
            15.895,
            35.689,
            61.457,
            19.257,
            24.754,
            15.417,
            52.73,
            -8.036,
            74.133,
            -3.4027,
            -3.5376,
            103.85,
            30.894,
            2.2821,
            80.325,
            -7.019,
            32.787,
            10.622,
            18.821,
            -3.9011,
            -15.008,
            47.333,
            40.323,
            37.684,
            45.638,
            21.431,
            51.49,
            -40.706,
            57.972,
            -33.243,
            12.77,
            2.227,
            12.785,
            38.24,
            -4.3046,
            8.9106,
            30.025,
            29.809,
            26.656,
            29.69,
            5.1883,
            -14.537,
            84.019,
            -26.041,
            37.324,
            68.753,
            -11.519,
            14.307,
            60.819,
            -23.171,
            -38.386,
            52.138,
            24.295,
            46.261,
            -71.007,
            5.0001,
            -21.402,
            -7.0293,
            33.909,
            -24.029,
            27.817,
            51.654,
            46.351,
            61.171,
            33.521,
            33.495,
            1.8497,
            25.447,
            22.793,
            -9.6255,
            36.809,
            8.9186,
            31.445,
            0.10152,
            46.423,
            79.882,
            1.9966,
            26.991,
            34.41,
            30.906,
            68.208,
            6.3094,
            21.649,
            31.742,
            5.1284,
            7.5749,
            62.155,
            -35.772,
            -19.22,
            60.163,
            38.05,
            -53.736,
            2.1038,
            -8.612,
            33.896,
            -16.036,
            31.011,
            64.407,
            -9.08,
            36.164,
            35.001,
            14.88,
            19.465,
            29.322,
            51.993,
            3.1467,
            42.999,
            60.757,
            0.33142,
            38.78,
            7.2927,
            -41.527,
            5.6264,
            -24.075,
            15.938,
            32.399,
            69.235,
            62.701,
            -8.9652,
            14.155,
            0.82718,
            -11.526,
            56.142,
            15.937,
            -7.396,
            48.245,
            10.757,
            71.849,
            -17.077,
            -23.152,
            -35.267,
            -34.563,
            26.507,
            -26.49,
            78.671,
            -14.736,
            -15.457,
            31.822,
            9.7778,
            51.991,
            10.393,
            62.012,
            -31.652,
            13.902,
            -18.074,
            -0.29175,
            49.067,
            -23.385,
            -50.001,
            22.19,
            11.658,
            60.644,
            18.951,
            7.5967,
            90.374,
            66.693,
            -28.876,
            1.34,
            9.3845,
            -18.903,
            58.2,
            -24.618,
            7.1281,
            -24.081,
            38.541,
            31.265,
            13.756,
            28.955,
            -2.6242,
            -34.146,
            12.74,
            -28.485,
            41.471,
            32.285,
            24.853,
            -25.872,
            23.464,
            13.002,
            16.382,
            -2.7643,
            1.0418,
            8.6364,
            62.993,
            9.8152,
            17.12,
            -2.8904,
            -20.973,
            32.233,
            8.4356,
            42.847,
            -19.852,
            5.5353,
            26.523,
            -28.011,
            40.754,
            -52.663,
            -43.228,
            63.695,
            69.776,
            48.328,
            -12.291,
            7.5852,
            1.2076,
            3.6323,
            4.0466,
            36.769,
            31.355,
            27.056,
            10.292,
            68.071,
            6.2666,
            12.168,
            32.749,
            33.15,
            0.46847,
            50.352,
            14.069,
            -11.074,
            -7.8829,
            44.678,
            -34.468,
            -32.89,
            -18.341,
            21.495,
            22.37,
            35.755,
            -16.775,
            41.756,
            8.6381,
            -14.255,
            18.028,
            5.0129,
            22.579,
            4.8227,
            -12.885,
            30.018,
            -13.065,
            15.673,
            11.446,
            -11.148,
            -25.748,
            45.958,
            -18.049,
            2.5597,
            20.773,
            75.518,
            48.444,
            -49.278,
            -17.997,
            -1.3524,
            -35.032,
            104.56,
            16.992,
            54.687,
            44.228,
            -19.083,
            39.344,
            30.925,
            37.093,
            8.2853,
            18.769,
            65.43,
            9.463,
            19.918,
            8.0805,
            -35.062,
            -4.4814,
            24.75,
            -4.5202,
            -6.2314,
            11.538,
            7.6508,
            47.346,
            34.242,
            -4.6847,
            29.023,
            10.877,
            60.225,
            28.374,
            29.206,
            46.984,
            0.1239,
            30.644,
            8.54,
            3.0302,
            -26.487,
            19.413,
            2.4795,
            -36.667,
            29.8,
            30.883,
            27.352,
            -23.774,
            35.798,
            67.717,
            -18.12,
            10.31,
            36.776,
            30.041,
            -5.2994,
            33.319,
            6.4992,
            29.037,
            -18.699,
            28.755,
            -40.573,
            13.753,
            42.173,
            -12.895,
            3.78,
            17.931,
            -20.95,
            74.215,
            49.086,
            -6.4791,
            30.366,
            65.462,
            -4.0574,
            -2.0064,
            -54.974,
            -14.642,
            15.587,
            9.1903,
            77.811,
            7.1458,
            19.482,
            63.103,
            -27.709,
            -13.28,
            2.3924,
            22.597,
            -7.3019,
            13.434,
            -48.989,
            -8.9869,
            2.3652,
            -26.306,
            -12.418,
            -11.784,
            -25.286,
            42.795,
            36.606,
            32.646,
            11.923,
            -49.525,
            -21.465,
            8.3729,
            11.517,
            -27.545,
            9.6346,
            -2.2448,
            -37.273,
            1.1032,
            -33.099,
            57.014,
            3.5821,
            40.674,
            5.1191,
            -8.9318,
            -4.3918,
            9.3566,
            18.383,
            28.284,
            4.2924,
            -2.751,
            22.18,
            -8.9963,
            42.565,
            -52.392,
            -23.798,
            36.083,
            -2.1762,
            19.089,
            55.103,
            23.504,
            -12.802,
            9.5101,
            20.841,
            66.423,
            3.4496,
            23.896,
            22.816,
            21.41,
            25.58,
            18.063,
            35.454,
            25.883,
            3.7277,
            35.276,
            17.363,
            -13.776,
            15.145,
            -20.592,
            18.158,
            1.1237,
            24.579,
            6.6215,
            -8.2437,
            42.297,
            57.959,
            34.999,
            35.012,
            30.492,
            13.551,
            14.941,
            14.432,
            -22.761,
            9.8205,
            11.431,
            30.841,
            55.37,
            30.045,
            17.368,
            47.034,
            1.9696,
            54.123,
            25.926,
            8.6206,
            -0.54404,
            12.078,
            19.343,
            42.629,
            24.376,
            12.318,
            6.1273,
            41.867,
            23.098,
            10.844,
            53.389,
            29.361,
            14.916,
            42.021,
            23.413,
            11.413,
            -10.339,
            36.322,
            33.551,
            32.217,
            17.566,
            31.464,
            9.8958,
            31.355,
            11.274,
            7.3953,
            -30.584,
            31.965,
            28.897,
            -19.721,
            27.999,
            44.554,
            4.9147,
            -1.3846,
            -6.508,
            32.173,
            54.098,
            12.981,
            10.016,
            18.44,
            13.905,
            53.317,
            26.028,
            30.805,
            -19.22,
            -29.17,
            50.791,
            27.537,
            56.468,
            -4.6518,
            17.353,
            34.758,
            31.286,
            33.937,
            29.543,
            37.927,
            28.164,
            -38.387,
            9.6835,
            3.6693,
            30.507,
            25.976,
            31.906,
            47.2,
            35.967,
            16.948,
            26.78,
            17.949,
            3.7313,
            59.833,
            40.42,
            50.606,
            -17.412,
            22.31,
            4.0986,
            18.181,
            41.187,
            28.715,
            26.867,
            21.658,
            33.236,
            31.319,
            41.626,
            24.489,
            42.745,
            13.512,
            20.304,
            7.0049,
            54.857,
            35.313,
            28.593,
            32.561,
            41.318,
            18.162,
            25.139,
            54.554,
            37.409,
            43.617,
            37.2,
            32.133,
            33.821,
            48.844,
            37.951,
            40.653,
            53.582,
            34.853,
            44.291,
            42.216,
            53.944,
            39.321,
            35.122,
            41.064,
            36.685,
            55.739,
            27.598,
            70.639,
            55.066,
            53.828,
            56.455,
            51.378,
            78.296,
            53.516,
            57.13,
            56.097,
            77.208,
            79.57,
            57.173,
            53.0,
            72.483,
            72.156,
            53.851,
            60.501,
            50.683,
            74.03,
            63.814,
            63.803,
            86.952,
            56.408,
            81.962,
            48.868,
            71.93,
            75.618,
            77.73,
            55.984,
            63.347,
            90.007,
            55.726,
            55.923,
            62.866,
            95.05,
            77.23,
            85.456,
            56.738,
            91.383,
            56.193,
            70.855,
            78.803,
            62.164,
            75.696,
            91.973,
            104.66,
            65.034,
            116.77,
            78.4,
            110.21,
            99.032,
            53.971,
            118.32,
            92.108,
            80.235,
            27.511,
            164.16,
            109.45,
            75.865,
            98.067,
            80.208,
            84.294,
            138.59,
            96.711,
            115.55,
            96.367,
            89.764,
            140.97,
            104.6,
            106.57,
            120.67,
            170.58,
            117.42,
            66.261,
            93.29,
            115.2,
            47.149,
            111.24,
            80.541,
            44.617,
            144.32,
            53.507,
            35.975,
            93.136,
            77.132,
            57.878,
            92.161,
            83.564,
            132.68,
            184.11,
            42.571,
            95.032,
            74.48,
            169.5,
            158.5,
            142.04,
            143.85,
            133.44,
            104.69,
            54.793,
            109.28,
            193.59,
            142.1,
            164.37,
            -48.661,
            80.992,
            147.28,
            74.146,
            162.23,
            141.82,
            68.416,
            53.664,
            152.65,
            55.823,
            59.087,
            131.8,
            87.885,
            149.97,
            97.814,
            228.48,
            -0.015635,
            188.51,
            190.0,
            45.723,
            189.29,
            137.61,
            185.96,
            138.4,
            227.3,
            54.703,
            321.11,
            120.98,
            170.51,
            139.49,
            192.75,
            151.06,
            82.341,
            203.31,
            116.81,
            69.146,
            126.42,
            56.422,
            381.7,
            211.74,
            292.83,
            132.97,
            61.18,
            178.81,
            92.563,
            124.88,
            318.2,
            139.85,
            342.02,
            197.19,
            58.784
          ],
          [
            18.812,
            19.078,
            19.768,
            21.478,
            22.002,
            23.053,
            23.98,
            26.739,
            25.663,
            27.017,
            25.502,
            25.483,
            25.878,
            25.378,
            24.415,
            24.724,
            26.732,
            27.056,
            27.723,
            27.746,
            29.244,
            29.814,
            28.644,
            29.802,
            32.703,
            34.496,
            30.897,
            29.577,
            28.593,
            29.519,
            29.045,
            29.938,
            29.457,
            30.704,
            29.93,
            29.979,
            30.319,
            29.779,
            30.527,
            31.25,
            30.947,
            30.793,
            31.282,
            31.423,
            31.956,
            31.782,
            32.443,
            32.064,
            32.076,
            31.949,
            32.798,
            32.585,
            32.312,
            32.964,
            32.819,
            33.246,
            33.079,
            33.411,
            33.745,
            33.745,
            33.594,
            33.091,
            33.78,
            34.162,
            33.455,
            33.851,
            33.618,
            33.628,
            33.339,
            33.567,
            34.282,
            34.551,
            34.302,
            34.769,
            34.634,
            35.381,
            34.175,
            35.282,
            34.684,
            34.987,
            35.316,
            35.477,
            35.357,
            75.416,
            76.345,
            75.477,
            72.692,
            75.887,
            74.765,
            74.561,
            75.218,
            74.333,
            76.516,
            76.116,
            76.932,
            74.059,
            76.903,
            72.075,
            74.388,
            76.034,
            77.574,
            76.725,
            77.948,
            75.947,
            77.334,
            76.486,
            75.214,
            77.025,
            74.361,
            79.043,
            77.027,
            79.137,
            79.473,
            80.25,
            80.054,
            79.135,
            78.394,
            77.34,
            80.646,
            80.122,
            76.368,
            76.369,
            74.394,
            79.567,
            81.721,
            75.564,
            75.788,
            76.715,
            77.078,
            77.512,
            79.238,
            85.579,
            98.764,
            93.67,
            82.185,
            78.808,
            76.681,
            77.318,
            79.491,
            77.445,
            77.852,
            77.111,
            78.427,
            75.708,
            76.241,
            74.456,
            78.212,
            80.791,
            77.255,
            78.297,
            36.143,
            36.657,
            36.914,
            36.83,
            37.201,
            36.934,
            37.189,
            37.343,
            37.318,
            36.869,
            37.884,
            37.191,
            37.901,
            36.926,
            82.162,
            81.231,
            78.241,
            79.004,
            79.927,
            78.235,
            80.901,
            83.277,
            80.901,
            80.402,
            82.641,
            83.963,
            81.427,
            80.833,
            83.146,
            82.048,
            78.885,
            84.748,
            82.684,
            82.509,
            81.896,
            82.968,
            81.674,
            78.063,
            81.274,
            81.494,
            84.144,
            79.091,
            80.155,
            83.205,
            81.268,
            80.212,
            80.439,
            82.515,
            82.287,
            81.262,
            87.835,
            79.048,
            81.078,
            37.456,
            37.385,
            38.688,
            38.068,
            38.422,
            38.094,
            38.283,
            39.345,
            38.656,
            39.216,
            39.35,
            40.323,
            38.827,
            38.411,
            39.629,
            40.06,
            38.69,
            39.829,
            39.48,
            38.87,
            39.535,
            38.561,
            38.721,
            39.405,
            38.172,
            38.157,
            39.156,
            39.33,
            39.618,
            39.022,
            39.371,
            39.07,
            39.381,
            39.7,
            40.011,
            40.247,
            40.614,
            41.045,
            40.808,
            39.64,
            40.702,
            40.966,
            41.036,
            40.707,
            39.226,
            39.968,
            41.086,
            40.661,
            40.64,
            40.616,
            41.182,
            41.05,
            41.113,
            40.292,
            41.912,
            42.199,
            42.359,
            41.038,
            41.072,
            40.386,
            41.017,
            41.718,
            41.049,
            40.995,
            41.945,
            41.265,
            41.421,
            40.817,
            41.835,
            41.267,
            42.134,
            41.18,
            42.192,
            41.742,
            41.623,
            43.36,
            42.61,
            41.856,
            41.495,
            42.391,
            42.832,
            42.236,
            41.493,
            41.976,
            42.207,
            42.175,
            41.793,
            42.762,
            41.602,
            42.97,
            42.341,
            42.575,
            42.521,
            42.722,
            43.416,
            41.939,
            42.128,
            43.138,
            43.426,
            42.557,
            42.496,
            42.719,
            43.188,
            42.491,
            42.906,
            42.875,
            41.161,
            42.161,
            42.048,
            42.771,
            42.5,
            43.117,
            43.038,
            43.776,
            43.736,
            43.333,
            43.712,
            43.772,
            43.988,
            42.958,
            44.0,
            44.562,
            43.623,
            45.057,
            43.854,
            44.044,
            45.993,
            43.979,
            43.952,
            44.4,
            43.985,
            44.673,
            43.586,
            44.434,
            43.987,
            44.354,
            44.844,
            45.481,
            43.957,
            44.57,
            44.936,
            44.595,
            44.839,
            43.561,
            44.972,
            43.745,
            45.278,
            44.83,
            44.587,
            44.641,
            44.831,
            45.559,
            46.087,
            45.77,
            44.431,
            44.911,
            45.574,
            46.017,
            44.798,
            44.479,
            45.338,
            45.14,
            45.217,
            45.988,
            45.615,
            44.815,
            46.058,
            45.049,
            45.358,
            45.689,
            46.656,
            46.346,
            45.615,
            48.571,
            45.444,
            45.759,
            46.055,
            46.72,
            46.816,
            46.233,
            45.625,
            47.05,
            47.524,
            46.244,
            47.308,
            46.167,
            45.241,
            46.452,
            46.215,
            46.01,
            46.292,
            46.954,
            46.473,
            47.443,
            47.35,
            46.988,
            46.426,
            45.868,
            46.514,
            46.568,
            48.307,
            47.328,
            47.091,
            47.106,
            46.419,
            46.302,
            46.855,
            46.522,
            46.585,
            47.314,
            47.25,
            47.481,
            47.221,
            47.29,
            48.534,
            47.444,
            47.329,
            48.119,
            47.083,
            48.305,
            47.973,
            47.075,
            47.006,
            46.843,
            47.57,
            48.027,
            48.871,
            46.395,
            49.712,
            50.719,
            49.108,
            48.213,
            48.801,
            46.795,
            46.824,
            46.735,
            47.086,
            49.732,
            47.429,
            48.249,
            48.324,
            46.808,
            49.451,
            47.416,
            48.002,
            47.444,
            48.392,
            48.175,
            48.198,
            50.635,
            48.556,
            48.288,
            49.396,
            48.269,
            48.867,
            48.734,
            49.061,
            47.991,
            48.698,
            47.986,
            49.591,
            49.485,
            47.886,
            48.592,
            49.193,
            48.409,
            47.915,
            49.805,
            48.516,
            51.401,
            48.991,
            48.318,
            49.464,
            50.321,
            47.74,
            49.733,
            49.246,
            49.47,
            48.729,
            48.184,
            49.147,
            50.117,
            48.647,
            49.603,
            49.824,
            49.032,
            49.422,
            50.204,
            51.387,
            49.864,
            48.991,
            49.213,
            49.008,
            49.543,
            50.624,
            48.822,
            34.973,
            35.556,
            35.081,
            34.959,
            35.69,
            34.791,
            35.346,
            35.472,
            35.613,
            35.956,
            35.239,
            34.649,
            35.072,
            35.495,
            35.242,
            35.51,
            35.87,
            36.271,
            36.752,
            35.758,
            36.26,
            36.421,
            36.915,
            36.944,
            37.591,
            37.136,
            36.771,
            37.765,
            37.267,
            36.76,
            36.875,
            36.679,
            36.851,
            35.909,
            36.612,
            36.587,
            36.269,
            36.467,
            36.351,
            37.4,
            37.133,
            37.818,
            36.365,
            37.099,
            36.992,
            36.927,
            37.3,
            36.69,
            36.97,
            36.817,
            37.151,
            36.927,
            37.698,
            37.206,
            37.453,
            37.824,
            37.507,
            37.037,
            36.846,
            37.366,
            37.368,
            38.266,
            37.987,
            38.365,
            37.907,
            38.482,
            38.466,
            38.623,
            38.388,
            38.244,
            38.604,
            39.251,
            39.373,
            38.688,
            38.72,
            40.213,
            39.94,
            39.365,
            39.521,
            40.505,
            42.222,
            41.296,
            43.594,
            42.624,
            44.334,
            45.246,
            47.711,
            48.445,
            52.259,
            58.139,
            67.277,
            73.086,
            85.994,
            96.282,
            94.509,
            99.385,
            90.625,
            83.949,
            73.307,
            65.549,
            59.565,
            53.464,
            49.566,
            46.501,
            45.584,
            45.363,
            45.835,
            42.574,
            42.179,
            41.928,
            41.769,
            41.547,
            41.324,
            40.717,
            41.148,
            41.728,
            40.795,
            40.883,
            40.777,
            40.37,
            40.548,
            40.882,
            40.318,
            40.348,
            40.212,
            40.524,
            40.142,
            40.019,
            40.111,
            39.731,
            40.72,
            40.892,
            39.443,
            40.668,
            40.598,
            39.731,
            39.927,
            40.023,
            40.304,
            40.011,
            40.55,
            40.111,
            40.776,
            40.658,
            40.521,
            40.417,
            40.076,
            40.205,
            40.769,
            40.416,
            40.694,
            40.246,
            41.075,
            41.729,
            40.939,
            39.938,
            40.392,
            41.122,
            41.134,
            41.08,
            41.39,
            40.755,
            41.663,
            40.833,
            41.04,
            41.275,
            40.38,
            41.113,
            40.961,
            41.293,
            40.987,
            40.481,
            42.282,
            40.786,
            41.644,
            41.36,
            41.724,
            42.226,
            40.915,
            41.939,
            41.308,
            41.137,
            41.451,
            42.523,
            41.179,
            42.264,
            41.759,
            40.758,
            41.383,
            42.251,
            41.292,
            41.634,
            41.924,
            43.606,
            42.107,
            41.778,
            41.711,
            41.16,
            41.311,
            42.062,
            41.798,
            42.403,
            42.025,
            42.327,
            41.213,
            42.327,
            41.84,
            43.084,
            42.378,
            42.725,
            42.562,
            42.451,
            42.492,
            42.534,
            42.183,
            42.881,
            42.435,
            42.04,
            43.474,
            43.161,
            42.248,
            44.244,
            31.654,
            30.143,
            30.293,
            29.792,
            30.127,
            30.965,
            30.104,
            30.099,
            30.329,
            30.656,
            30.393,
            30.63,
            30.224,
            30.464,
            30.981,
            30.246,
            30.709,
            31.132,
            31.459,
            30.991,
            30.501,
            30.478,
            31.237,
            30.791,
            31.147,
            31.305,
            31.543,
            31.329,
            31.254,
            31.359,
            31.347,
            31.41,
            31.007,
            31.315,
            31.418,
            31.902,
            31.662,
            31.254,
            31.515,
            31.705,
            31.718,
            31.324,
            31.644,
            32.015,
            31.939,
            31.614,
            31.868,
            31.73,
            32.373,
            31.747,
            32.016,
            32.663,
            31.901,
            32.87,
            32.331,
            32.426,
            31.791,
            33.005,
            32.304,
            32.284,
            32.86,
            32.299,
            32.432,
            32.84,
            32.563,
            32.527,
            33.028,
            32.689,
            32.732,
            33.201,
            32.569,
            33.184,
            32.211,
            33.116,
            32.867,
            33.047,
            32.834,
            32.636,
            33.372,
            33.314,
            33.502,
            33.351,
            33.023,
            33.258,
            33.658,
            32.998,
            33.798,
            33.239,
            33.492,
            33.142,
            33.986,
            34.045,
            33.23,
            33.763,
            33.395,
            33.745,
            33.946,
            33.94,
            34.389,
            34.053,
            33.86,
            34.427,
            34.075,
            33.427,
            34.495,
            33.885,
            34.131,
            34.43,
            33.969,
            34.371,
            34.287,
            34.673,
            34.067,
            34.375,
            34.849,
            34.735,
            34.924,
            34.818,
            34.865,
            35.324,
            34.625,
            35.138,
            35.039,
            35.349,
            34.568,
            34.974,
            34.706,
            34.978,
            34.634,
            34.972,
            35.215,
            35.047,
            35.014,
            34.739,
            35.428,
            35.564,
            35.293,
            34.952,
            34.907,
            35.37,
            35.071,
            35.364,
            35.082,
            35.222,
            35.218,
            35.418,
            35.652,
            35.459,
            35.875,
            35.306,
            36.253,
            35.686,
            35.698,
            36.477,
            36.62,
            35.966,
            36.008,
            36.157,
            36.071,
            36.816,
            36.28,
            36.158,
            35.718,
            36.436,
            35.933,
            35.506,
            36.201,
            36.696,
            36.938,
            36.962,
            36.031,
            36.437,
            36.143,
            36.153,
            36.635,
            36.862,
            36.335,
            37.674,
            36.963,
            37.264,
            37.018,
            36.929,
            36.71,
            37.058,
            36.82,
            36.729,
            37.011,
            36.708,
            37.116,
            37.549,
            37.321,
            37.05,
            37.536,
            37.081,
            37.599,
            37.284,
            36.637,
            36.795,
            37.158,
            37.148,
            37.253,
            37.418,
            37.322,
            38.135,
            38.179,
            37.615,
            37.397,
            38.338,
            37.653,
            37.54,
            38.772,
            38.889,
            38.415,
            38.03,
            37.694,
            38.284,
            38.155,
            38.7,
            37.665,
            38.079,
            37.949,
            38.563,
            32.559,
            26.917,
            27.164,
            26.924,
            27.159,
            27.277,
            27.947,
            27.416,
            27.27,
            27.324,
            27.228,
            27.444,
            27.572,
            27.338,
            27.824,
            27.512,
            27.571,
            27.742,
            27.594,
            27.656,
            27.795,
            27.959,
            28.602,
            27.81,
            27.985,
            28.383,
            28.205,
            28.08,
            28.164,
            28.236,
            28.457,
            28.017,
            28.492,
            28.453,
            28.492,
            28.431,
            28.276,
            28.657,
            28.643,
            28.717,
            29.065,
            28.83,
            29.086,
            29.064,
            29.008,
            28.803,
            29.036,
            29.249,
            29.298,
            29.113,
            29.295,
            29.191,
            29.497,
            29.218,
            29.832,
            29.871,
            30.005,
            29.479,
            29.811,
            29.455,
            29.507,
            29.625,
            29.722,
            29.688,
            29.647,
            30.168,
            29.614,
            29.62,
            30.121,
            30.222,
            30.173,
            30.353,
            30.296,
            30.824,
            30.243,
            30.374,
            29.725,
            30.494,
            30.046,
            30.567,
            30.424,
            30.554,
            30.564,
            30.741,
            30.231,
            30.695,
            30.338,
            31.027,
            31.227,
            31.125,
            30.81,
            31.13,
            30.988,
            30.936,
            31.015,
            31.075,
            31.123,
            31.574,
            31.325,
            31.226,
            31.237,
            31.641,
            31.413,
            31.655,
            32.468,
            31.914,
            31.738,
            32.152,
            31.556,
            32.041,
            31.659,
            27.929,
            22.554,
            22.825,
            22.551,
            22.738,
            22.732,
            22.807,
            22.582,
            22.849,
            23.128,
            23.15,
            23.202,
            23.222,
            23.211,
            23.23,
            23.424,
            23.225,
            23.602,
            23.585,
            23.436,
            23.484,
            23.739,
            23.843,
            23.804,
            23.793,
            24.016,
            24.325,
            24.388,
            24.021,
            24.112,
            24.406,
            24.56,
            24.528,
            24.274,
            24.47,
            24.286,
            24.635,
            24.497,
            24.55,
            24.947,
            24.774,
            24.695,
            24.897,
            24.958,
            24.812,
            25.079,
            25.007,
            25.278,
            25.264,
            25.326,
            25.525,
            25.675,
            25.36,
            25.454,
            25.662,
            25.485,
            25.601,
            25.423,
            25.793,
            25.651,
            25.893,
            25.804,
            25.737,
            26.193,
            25.847,
            26.27,
            26.135,
            26.314,
            26.7,
            26.093,
            26.132,
            26.431,
            26.625,
            26.998,
            26.539,
            26.517,
            26.924,
            26.845,
            26.783,
            27.213,
            27.342,
            27.207,
            27.358,
            27.254,
            27.472,
            27.024,
            27.231,
            27.072,
            27.378,
            27.716,
            27.443,
            27.484,
            27.305,
            27.831,
            27.744,
            27.888,
            27.767,
            28.028,
            27.944,
            27.71,
            28.169,
            28.305,
            28.525,
            28.048,
            28.477,
            27.947,
            28.908,
            28.468,
            28.525,
            28.454,
            28.824,
            24.054,
            14.409,
            14.461,
            14.557,
            14.711,
            14.854,
            14.862,
            14.961,
            15.117,
            15.217,
            15.241,
            15.406,
            15.564,
            15.718,
            15.753,
            15.753,
            15.837,
            15.899,
            16.15,
            16.19,
            16.291,
            16.442,
            16.435,
            16.682,
            16.652,
            16.797,
            16.892,
            17.127,
            16.963,
            17.045,
            17.191,
            17.35,
            17.371,
            17.489,
            17.72,
            17.722,
            17.844,
            17.857,
            18.217,
            18.12,
            18.216,
            18.342,
            18.414,
            18.524,
            18.508,
            18.61,
            18.692,
            18.826,
            18.991,
            19.124,
            19.107,
            19.257,
            19.204,
            19.422,
            19.426,
            19.516,
            19.647,
            19.671,
            20.111,
            19.937,
            20.065,
            20.062,
            20.243,
            20.407,
            20.225,
            20.56,
            20.617,
            20.782,
            20.459,
            20.698,
            21.018,
            20.914,
            21.254,
            21.049,
            21.091,
            21.409,
            21.554,
            21.564,
            21.5,
            21.762,
            21.794,
            21.62,
            21.99,
            21.788,
            22.09,
            22.077,
            22.343,
            22.304,
            22.108,
            22.399,
            22.526,
            22.639,
            22.725,
            22.902,
            22.774,
            23.066,
            23.166,
            23.263,
            23.549,
            23.479,
            23.609,
            23.606,
            23.568,
            23.834,
            23.791,
            23.881,
            23.766,
            23.917,
            23.964,
            24.027,
            23.96,
            126.17,
            8.6827,
            8.8748,
            9.1036,
            9.2299,
            9.4626,
            9.6568,
            9.8373,
            10.101,
            10.333,
            10.497,
            10.732,
            10.852,
            10.985,
            123.56,
            11.248,
            11.292,
            11.436,
            11.457,
            11.465,
            11.432,
            11.405,
            11.393,
            11.311,
            11.23,
            11.193,
            11.084,
            11.038,
            126.37,
            10.838,
            10.79,
            10.719,
            10.625,
            10.589,
            10.611,
            10.457,
            10.555,
            10.479,
            10.515,
            10.48,
            10.543,
            10.534,
            126.67,
            10.594,
            10.661,
            10.672,
            10.752,
            10.793,
            10.945,
            11.034,
            11.102,
            11.259,
            11.348,
            11.475,
            11.663,
            11.795,
            126.12,
            12.03,
            12.232,
            12.397,
            12.553,
            12.717,
            12.907,
            13.104,
            13.25,
            13.478,
            13.779,
            13.931,
            14.017,
            14.359,
            126.94,
            14.655,
            14.977,
            15.239,
            15.462,
            15.672,
            15.927,
            16.208,
            16.465,
            16.779,
            17.023,
            17.315,
            17.494,
            17.898,
            133.06,
            18.492,
            18.841,
            19.188,
            19.58,
            19.736,
            20.121,
            20.654,
            20.977,
            21.372,
            21.916,
            21.933,
            22.107,
            130.21,
            22.632,
            23.049,
            23.329,
            23.722,
            24.464,
            24.114,
            24.585,
            24.884,
            25.313,
            26.199,
            26.573,
            26.786,
            26.494,
            135.97,
            27.713,
            28.596,
            29.021,
            29.234,
            29.86,
            29.88,
            29.927,
            30.472,
            30.644,
            31.111,
            31.615,
            32.857,
            33.285,
            134.21,
            34.197,
            34.415,
            34.391,
            36.239,
            36.07,
            36.666,
            38.266,
            37.194,
            37.935,
            38.862,
            40.244,
            39.36,
            40.808,
            138.49,
            43.12,
            42.282,
            42.33,
            43.579,
            42.85,
            44.415,
            46.174,
            46.635,
            46.874,
            49.147,
            48.565,
            50.1,
            52.278,
            135.32,
            53.219,
            52.322,
            53.278,
            52.504,
            53.685,
            56.914,
            57.929,
            55.169,
            57.291,
            57.528,
            57.851,
            63.048,
            59.312,
            160.08,
            62.576,
            67.142,
            64.352,
            65.246,
            66.686,
            64.241,
            78.724,
            70.072,
            71.579,
            70.546,
            75.865,
            71.654,
            72.38,
            185.83,
            73.501,
            83.277,
            77.522,
            75.436,
            89.235,
            90.215,
            91.636,
            87.03,
            91.906,
            87.521,
            115.12,
            78.338
          ]
        ]
      }
    }
  }
}