{
  "entry": "20814",
  "last_updated": "2013-02-26",
  "number_of_revisions": "4",
  "histories": [
    {
      "x4_code": "(19780310T)",
      "free_txt": []
    },
    {
      "x4_code": "(19790219E)",
      "free_txt": []
    },
    {
      "x4_code": "(20120718A)",
      "free_txt": [
        " SD: Updated to new date formats,lower case.",
        "     Corrections according last EXFOR rules and Dict.",
        "     Vol. of ref. on JPR,23 corrected (23 =>24)."
      ]
    }
  ],
  "bib_record": {
    "title": " Analysis of the U-233 fission cross section for neutron energy between 1.7 eV and 30 eV",
    "authors": [
      {
        "name": "H.Nifenecker"
      }
    ],
    "institutes": [
      {
        "x4_code": "(2FR SAC)",
        "free_txt": []
      }
    ],
    "references": {
      "0": [
        {
          "x4_code": "(C,65SALZBURG,1,245,196503)",
          "free_txt": [
            "  In French"
          ],
          "publication_year": "1965"
        },
        {
          "x4_code": "(J,JPR,25,877,196410)",
          "free_txt": [
            " short description of",
            " experiment. Plots of fission cross section."
          ],
          "publication_year": "1964"
        },
        {
          "x4_code": "(J,JPR,24,254,196304)",
          "free_txt": [
            " Details of experiment.",
            " Preliminary data given."
          ],
          "publication_year": "1963"
        },
        {
          "x4_code": "(P,EANDC(E)-57U,115,196502)",
          "free_txt": [
            " Short description of",
            " experiment."
          ],
          "publication_year": "1965"
        },
        {
          "x4_code": "(P,EANDC(E)-23L,26,196202)",
          "free_txt": [
            " Preliminary experiment."
          ],
          "publication_year": "1962"
        }
      ]
    },
    "facilities": {
      "0": [
        {
          "x4_code": "(LINAC,2FR SAC)",
          "free_txt": [
            " Electron linear accelerator of Saclay."
          ],
          "facility_type": "(LINAC)",
          "institute": "(2FR SAC)"
        }
      ]
    }
  },
  "data_tables": {
    "001": {
      "extra_information": {
        "analysis": {
          "0": [
            {
              "x4_code": "(SHAPE)",
              "free_txt": [
                " Analysis by Breit-Wigner formula."
              ]
            }
          ]
        },
        "correction": {
          "0": [
            {
              "x4_code": null,
              "free_txt": [
                ".For Doppler,resolution,dead time and",
                " background effects."
              ]
            }
          ]
        },
        "facility": {
          "0": [
            {
              "x4_code": "(LINAC,2FR SAC)",
              "free_txt": [
                " Electron linear accelerator of Saclay."
              ]
            }
          ]
        },
        "inc-source": {
          "0": [
            {
              "x4_code": "(PHOTO)",
              "free_txt": [
                " Photo neutrons from a uranium target."
              ]
            }
          ]
        },
        "method": {
          "0": [
            {
              "x4_code": "(TOF  )",
              "free_txt": [
                " Time of flight."
              ]
            }
          ]
        }
      }
    },
    "002": {
      "reaction": {
        "0": {
          "x4_code": "(92-U-233(N,F),,SIG,,RTE)",
          "0": {
            "code": [
              "92-U-233",
              [
                "N,F"
              ],
              ",,SIG,,RTE"
            ],
            "type": null,
            "target": "92-U-233",
            "process": "N,F",
            "sf49": ",,SIG,,RTE",
            "sf4": null,
            "sf5": null,
            "sf6": "SIG",
            "sf7": null,
            "sf8": "RTE",
            "sf9": null
          },
          "type": null,
          "free_text": ""
        }
      },
      "extra_information": {
        "status": {
          "0": [
            {
              "x4_code": "(TABLE)",
              "free_txt": [
                " .Data kept on punched cards at NEA/Data Bank."
              ]
            }
          ]
        }
      },
      "common": null,
      "data": {
        "heads": [
          "EN",
          "DATA",
          "DATA-ERR"
        ],
        "units": [
          "EV",
          "B*RT-EV",
          "B*RT-EV"
        ],
        "data": [
          [
            1.7383,
            1.7406,
            1.7429,
            1.7451,
            1.7474,
            1.7497,
            1.752,
            1.7543,
            1.7566,
            1.7589,
            1.7613,
            1.7636,
            1.7659,
            1.7682,
            1.7706,
            1.7729,
            1.7752,
            1.7776,
            1.7799,
            1.7823,
            1.7847,
            1.787,
            1.7894,
            1.7918,
            1.7941,
            1.7965,
            1.7989,
            1.8013,
            1.8037,
            1.8061,
            1.8085,
            1.8109,
            1.8134,
            1.8158,
            1.8182,
            1.8206,
            1.8231,
            1.8255,
            1.828,
            1.8304,
            1.8329,
            1.8354,
            1.8378,
            1.8403,
            1.8428,
            1.8452,
            1.8477,
            1.8502,
            1.8527,
            1.8552,
            1.8577,
            1.8603,
            1.8628,
            1.8653,
            1.8678,
            1.8704,
            1.8729,
            1.8754,
            1.878,
            1.8805,
            1.8831,
            1.8857,
            1.8882,
            1.8908,
            1.8934,
            1.896,
            1.8986,
            1.9012,
            1.9038,
            1.9064,
            1.909,
            1.9116,
            1.9142,
            1.9169,
            1.9195,
            1.9221,
            1.9248,
            1.9274,
            1.9301,
            1.9327,
            1.9354,
            1.9381,
            1.9408,
            1.9434,
            1.9461,
            1.9488,
            1.9515,
            1.9542,
            1.9569,
            1.9597,
            1.9624,
            1.9651,
            1.9678,
            1.9706,
            1.9733,
            1.9761,
            1.9788,
            1.9816,
            1.9844,
            1.9871,
            1.9899,
            1.9927,
            1.9955,
            1.9983,
            2.0011,
            2.0039,
            2.0067,
            2.0096,
            2.0124,
            2.0152,
            2.018,
            2.0209,
            2.0238,
            2.0266,
            2.0295,
            2.0323,
            2.0352,
            2.0381,
            2.041,
            2.0439,
            2.0468,
            2.0497,
            2.0526,
            2.0555,
            2.0584,
            2.0614,
            2.0643,
            2.0673,
            2.0702,
            2.0732,
            2.0761,
            2.0791,
            2.0821,
            2.085,
            2.088,
            2.091,
            2.094,
            2.097,
            2.1001,
            2.1031,
            2.1061,
            2.1091,
            2.1122,
            2.1152,
            2.1183,
            2.1213,
            2.1244,
            2.1275,
            2.1306,
            2.1336,
            2.1367,
            2.1398,
            2.1429,
            2.1461,
            2.1492,
            2.1523,
            2.1554,
            2.1586,
            2.1617,
            2.1649,
            2.168,
            2.1712,
            2.1744,
            2.1776,
            2.1808,
            2.184,
            2.1872,
            2.1904,
            2.1936,
            2.1968,
            2.2,
            2.2033,
            2.2065,
            2.2098,
            2.213,
            2.2163,
            2.2196,
            2.2229,
            2.2262,
            2.2294,
            2.2328,
            2.2361,
            2.2394,
            2.2427,
            2.2461,
            2.2494,
            2.2527,
            2.2561,
            2.2595,
            2.2628,
            2.2662,
            2.2696,
            2.273,
            2.2764,
            2.2798,
            2.2832,
            2.2866,
            2.2901,
            2.2935,
            2.297,
            2.3004,
            2.3039,
            2.3074,
            2.3108,
            2.3143,
            2.3178,
            2.3213,
            2.3248,
            2.3283,
            2.3319,
            2.3354,
            2.3389,
            2.3425,
            2.346,
            2.3496,
            2.3532,
            2.3568,
            2.3604,
            2.364,
            2.3676,
            2.3712,
            2.3748,
            2.3785,
            2.3821,
            2.3857,
            2.3894,
            2.3931,
            2.3967,
            2.4004,
            2.4041,
            2.4078,
            2.4115,
            2.4152,
            2.419,
            2.4227,
            2.4264,
            2.4302,
            2.434,
            2.4377,
            2.4415,
            2.4453,
            2.4491,
            2.4529,
            2.4567,
            2.4605,
            2.4643,
            2.4682,
            2.472,
            2.4759,
            2.4798,
            2.4836,
            2.4875,
            2.4914,
            2.4953,
            2.4992,
            2.5032,
            2.5071,
            2.511,
            2.515,
            2.5189,
            2.5229,
            2.5269,
            2.5309,
            2.5349,
            2.5389,
            2.5429,
            2.5469,
            2.5509,
            2.555,
            2.559,
            2.5631,
            2.5672,
            2.5713,
            2.5754,
            2.5795,
            2.5836,
            2.5877,
            2.5918,
            2.596,
            2.6001,
            2.6043,
            2.6085,
            2.6126,
            2.6168,
            2.621,
            2.6253,
            2.6295,
            2.6337,
            2.638,
            2.6422,
            2.6465,
            2.6507,
            2.655,
            2.6593,
            2.6636,
            2.6679,
            2.6723,
            2.6766,
            2.6809,
            2.6853,
            2.6897,
            2.6941,
            2.6984,
            2.7028,
            2.7072,
            2.7117,
            2.7161,
            2.7206,
            2.725,
            2.7295,
            2.7339,
            2.7384,
            2.7429,
            2.7474,
            2.752,
            2.7565,
            2.761,
            2.7656,
            2.7702,
            2.7747,
            2.7793,
            2.7839,
            2.7885,
            2.7932,
            2.7978,
            2.8024,
            2.8071,
            2.8118,
            2.8164,
            2.8211,
            2.8258,
            2.8305,
            2.8353,
            2.84,
            2.8448,
            2.8495,
            2.8543,
            2.8591,
            2.8639,
            2.8687,
            2.8735,
            2.8784,
            2.8832,
            2.8881,
            2.8929,
            2.8978,
            2.9027,
            2.9076,
            2.9126,
            2.9175,
            2.9224,
            2.9274,
            2.9324,
            2.9374,
            2.9424,
            2.9474,
            2.9524,
            2.9574,
            2.9625,
            2.9675,
            2.9726,
            2.9777,
            2.9828,
            2.9879,
            2.993,
            2.9982,
            3.0033,
            3.0085,
            3.0137,
            3.0189,
            3.0241,
            3.0293,
            3.0345,
            3.0398,
            3.045,
            3.0503,
            3.0556,
            3.0609,
            3.0662,
            3.0716,
            3.0769,
            3.0823,
            3.0876,
            3.093,
            3.0984,
            3.1038,
            3.1093,
            3.1147,
            3.1202,
            3.1256,
            3.1311,
            3.1366,
            3.1421,
            3.1477,
            3.1532,
            3.1588,
            3.1643,
            3.1699,
            3.1755,
            3.1811,
            3.1868,
            3.1924,
            3.1981,
            3.2038,
            3.2095,
            3.2152,
            3.2209,
            3.2266,
            3.2324,
            3.2382,
            3.2439,
            3.2497,
            3.2556,
            3.2614,
            3.2672,
            3.2731,
            3.279,
            3.2849,
            3.2908,
            3.2967,
            3.3027,
            3.3086,
            3.3146,
            3.3206,
            3.3266,
            3.3326,
            3.3386,
            3.3447,
            3.3508,
            3.3569,
            3.363,
            3.3691,
            3.3752,
            3.3814,
            3.3876,
            3.3938,
            3.4,
            3.4062,
            3.4124,
            3.4187,
            3.425,
            3.4313,
            3.4376,
            3.4439,
            3.4502,
            3.4566,
            3.463,
            3.4694,
            3.4758,
            3.4822,
            3.4887,
            3.4952,
            3.5016,
            3.5082,
            3.5147,
            3.5212,
            3.5278,
            3.5344,
            3.541,
            3.5476,
            3.5542,
            3.5608,
            3.5675,
            3.5742,
            3.5809,
            3.5877,
            3.5944,
            3.6012,
            3.608,
            3.6147,
            3.6216,
            3.6284,
            3.6353,
            3.6422,
            3.6491,
            3.656,
            3.6629,
            3.6699,
            3.6769,
            3.6839,
            3.6909,
            3.6979,
            3.705,
            3.7121,
            3.7192,
            3.7263,
            3.7334,
            3.7406,
            3.7478,
            3.755,
            3.7622,
            3.7695,
            3.7767,
            3.784,
            3.7913,
            3.7986,
            3.806,
            3.8134,
            3.8208,
            3.8282,
            3.8356,
            3.8431,
            3.8505,
            3.858,
            3.8656,
            3.8731,
            3.8807,
            3.8883,
            3.8959,
            3.9035,
            3.9112,
            3.9189,
            3.9266,
            3.9343,
            3.9421,
            3.9498,
            3.9576,
            3.9654,
            3.9733,
            3.9811,
            3.989,
            3.9969,
            4.0049,
            4.0128,
            4.0208,
            4.0288,
            4.0368,
            4.0449,
            4.053,
            4.0611,
            4.0692,
            4.0774,
            4.0855,
            4.0937,
            4.1019,
            4.1102,
            4.1185,
            4.1268,
            4.1351,
            4.1435,
            4.1518,
            4.1602,
            4.1686,
            4.1771,
            4.1856,
            4.1941,
            4.2026,
            4.2112,
            4.2197,
            4.2283,
            4.237,
            4.2456,
            4.2543,
            4.2631,
            4.2718,
            4.2806,
            4.2893,
            4.2982,
            4.307,
            4.3159,
            4.3248,
            4.3337,
            4.3427,
            4.3517,
            4.3607,
            4.3697,
            4.3788,
            4.3879,
            4.397,
            4.4062,
            4.4154,
            4.4246,
            4.4338,
            4.4431,
            4.4524,
            4.4617,
            4.4711,
            4.4805,
            4.4899,
            4.4993,
            4.5088,
            4.5183,
            4.5278,
            4.5374,
            4.547,
            4.5566,
            4.5663,
            4.576,
            4.5857,
            4.5955,
            4.6053,
            4.6151,
            4.6249,
            4.6348,
            4.6447,
            4.6546,
            4.6646,
            4.6746,
            4.6847,
            4.6947,
            4.7048,
            4.715,
            4.7251,
            4.7353,
            4.7456,
            4.7558,
            4.7661,
            4.7765,
            4.7868,
            4.7972,
            4.8077,
            4.8181,
            4.8286,
            4.8392,
            4.8497,
            4.8603,
            4.871,
            4.8817,
            4.8924,
            4.9031,
            4.9139,
            4.9247,
            4.9356,
            4.9465,
            4.9574,
            4.9683,
            4.9793,
            4.9904,
            5.0015,
            5.0126,
            5.0237,
            5.0349,
            5.0461,
            5.0574,
            5.0687,
            5.08,
            5.0914,
            5.1028,
            5.1142,
            5.1257,
            5.1372,
            5.1488,
            5.1604,
            5.172,
            5.1837,
            5.1954,
            5.2072,
            5.219,
            5.2308,
            5.2427,
            5.2546,
            5.2666,
            5.2786,
            5.2907,
            5.3027,
            5.3149,
            5.327,
            5.3393,
            5.3515,
            5.3638,
            5.3761,
            5.3885,
            5.4009,
            5.4134,
            5.4259,
            5.4385,
            5.4511,
            5.4637,
            5.4764,
            5.4891,
            5.5019,
            5.5147,
            5.5276,
            5.5405,
            5.5534,
            5.5664,
            5.5795,
            5.5926,
            5.6057,
            5.6189,
            5.6321,
            5.6454,
            5.6587,
            5.6721,
            5.6855,
            5.699,
            5.7125,
            5.726,
            5.7396,
            5.7533,
            5.767,
            5.7808,
            5.7946,
            5.8084,
            5.8223,
            5.8363,
            5.8503,
            5.8643,
            5.8784,
            5.8926,
            5.9068,
            5.9211,
            5.9354,
            5.9497,
            5.9642,
            5.9786,
            5.9931,
            6.0077,
            6.0223,
            6.037,
            6.0518,
            6.0665,
            6.0814,
            6.0963,
            6.1112,
            6.1262,
            6.1413,
            6.1564,
            6.1716,
            6.1868,
            6.2021,
            6.2175,
            6.2329,
            6.2483,
            6.2638,
            6.2794,
            6.295,
            6.3107,
            6.3264,
            6.3423,
            6.3581,
            6.3741,
            6.39,
            6.4061,
            6.4222,
            6.4384,
            6.4546,
            6.4709,
            6.4872,
            6.5036,
            6.5201,
            6.5367,
            6.5533,
            6.5699,
            6.5866,
            6.6034,
            6.6203,
            6.6372,
            6.6542,
            6.6712,
            6.6884,
            6.7056,
            6.7228,
            6.7401,
            6.7575,
            6.7749,
            6.7925,
            6.8101,
            6.8277,
            6.8454,
            6.8632,
            6.8811,
            6.899,
            6.917,
            6.9351,
            6.9532,
            6.9714,
            6.9897,
            7.0081,
            7.0265,
            7.045,
            7.0636,
            7.0822,
            7.101,
            7.1198,
            7.1386,
            7.1576,
            7.1766,
            7.1957,
            7.2149,
            7.2341,
            7.2535,
            7.2729,
            7.2924,
            7.3119,
            7.3316,
            7.3513,
            7.3711,
            7.391,
            7.4109,
            7.431,
            7.4511,
            7.4713,
            7.4916,
            7.512,
            7.5324,
            7.553,
            7.5736,
            7.5943,
            7.6151,
            7.636,
            7.6569,
            7.678,
            7.6991,
            7.7203,
            7.7416,
            7.763,
            7.7845,
            7.8061,
            7.8278,
            7.8495,
            7.8714,
            7.8933,
            7.9154,
            7.9375,
            7.9597,
            7.982,
            8.0044,
            8.0269,
            8.0495,
            8.0722,
            8.095,
            8.1179,
            8.1409,
            8.1639,
            8.1871,
            8.2104,
            8.2338,
            8.2572,
            8.2808,
            8.3045,
            8.3283,
            8.3521,
            8.3761,
            8.4002,
            8.4244,
            8.4487,
            8.4731,
            8.4976,
            8.5222,
            8.5469,
            8.5718,
            8.5967,
            8.6218,
            8.6469,
            8.6722,
            8.6976,
            8.723,
            8.7486,
            8.7744,
            8.8002,
            8.8261,
            8.8522,
            8.8783,
            8.9046,
            8.931,
            8.9576,
            8.9842,
            9.0109,
            9.0378,
            9.0648,
            9.092,
            9.1192,
            9.1465,
            9.174,
            9.2017,
            9.2294,
            9.2572,
            9.2852,
            9.3134,
            9.3416,
            9.37,
            9.3985,
            9.4271,
            9.4559,
            9.4848,
            9.5138,
            9.543,
            9.5723,
            9.6017,
            9.6313,
            9.6609,
            9.6908,
            9.7208,
            9.7509,
            9.7811,
            9.8116,
            9.8421,
            9.8728,
            9.9036,
            9.9346,
            9.9657,
            9.997,
            10.028,
            10.06,
            10.092,
            10.123,
            10.156,
            10.188,
            10.22,
            10.253,
            10.285,
            10.318,
            10.351,
            10.384,
            10.417,
            10.451,
            10.484,
            10.518,
            10.552,
            10.586,
            10.62,
            10.655,
            10.689,
            10.724,
            10.759,
            10.794,
            10.829,
            10.864,
            10.9,
            10.936,
            10.972,
            11.008,
            11.044,
            11.081,
            11.117,
            11.154,
            11.191,
            11.228,
            11.266,
            11.303,
            11.341,
            11.379,
            11.417,
            11.456,
            11.494,
            11.533,
            11.572,
            11.611,
            11.65,
            11.69,
            11.73,
            11.769,
            11.809,
            11.85,
            11.89,
            11.931,
            11.972,
            12.013,
            12.055,
            12.096,
            12.138,
            12.18,
            12.222,
            12.265,
            12.308,
            12.35,
            12.394,
            12.437,
            12.481,
            12.525,
            12.569,
            12.613,
            12.657,
            12.702,
            12.747,
            12.792,
            12.838,
            12.884,
            12.929,
            12.976,
            13.022,
            13.069,
            13.116,
            13.163,
            13.211,
            13.258,
            13.306,
            13.355,
            13.403,
            13.452,
            13.501,
            13.55,
            13.6,
            13.65,
            13.7,
            13.75,
            13.801,
            13.852,
            13.903,
            13.955,
            14.007,
            14.059,
            14.111,
            14.164,
            14.217,
            14.27,
            14.324,
            14.378,
            14.432,
            14.486,
            14.541,
            14.596,
            14.652,
            14.707,
            14.763,
            14.82,
            14.877,
            14.934,
            14.991,
            15.049,
            15.107,
            15.165,
            15.224,
            15.283,
            15.342,
            15.402,
            15.462,
            15.523,
            15.584
          ],
          [
            906.9,
            996.28,
            862.82,
            947.91,
            906.42,
            1011.7,
            950.02,
            1032.3,
            931.69,
            1019.7,
            1045.8,
            1023.0,
            1076.4,
            1108.3,
            1024.9,
            1025.0,
            1103.0,
            1077.2,
            1018.1,
            1070.2,
            1115.0,
            1141.0,
            1047.3,
            1125.3,
            1102.3,
            1089.4,
            1132.7,
            1220.8,
            1181.8,
            1128.5,
            1093.9,
            1215.1,
            1085.2,
            1155.9,
            1070.8,
            1069.3,
            1132.8,
            1109.7,
            1092.3,
            1124.1,
            1102.4,
            1145.6,
            1072.0,
            1180.1,
            1087.7,
            1031.4,
            1029.9,
            1156.8,
            1052.8,
            1080.2,
            1062.8,
            1067.0,
            993.4,
            1062.5,
            1037.9,
            987.37,
            1023.3,
            1014.6,
            978.43,
            968.25,
            988.32,
            946.43,
            900.24,
            949.1,
            843.87,
            862.49,
            860.95,
            865.16,
            902.48,
            794.43,
            859.09,
            838.83,
            814.27,
            842.93,
            772.35,
            786.63,
            785.08,
            741.84,
            780.56,
            715.77,
            696.99,
            719.88,
            691.05,
            713.94,
            685.11,
            693.63,
            676.3,
            666.15,
            689.02,
            667.39,
            642.9,
            637.06,
            585.32,
            625.4,
            562.2,
            530.57,
            564.9,
            560.52,
            583.37,
            617.68,
            590.36,
            558.75,
            591.61,
            635.92,
            542.75,
            588.48,
            515.38,
            509.58,
            495.19,
            589.56,
            546.55,
            516.42,
            489.17,
            497.67,
            520.48,
            483.23,
            460.28,
            443.06,
            467.29,
            472.94,
            530.01,
            445.65,
            447.02,
            461.23,
            399.77,
            443.96,
            408.21,
            462.38,
            475.15,
            467.95,
            519.23,
            420.74,
            404.99,
            422.04,
            412.0,
            421.92,
            371.98,
            434.62,
            460.2,
            445.89,
            407.37,
            411.58,
            447.12,
            373.02,
            401.44,
            473.97,
            388.51,
            424.03,
            419.7,
            438.13,
            405.35,
            472.13,
            386.75,
            410.87,
            385.22,
            397.96,
            405.0,
            440.47,
            419.09,
            480.12,
            420.4,
            370.63,
            391.88,
            438.67,
            403.12,
            448.48,
            427.13,
            444.1,
            442.62,
            412.77,
            445.33,
            482.13,
            431.02,
            462.15,
            470.59,
            534.3,
            461.96,
            466.14,
            461.82,
            492.92,
            521.18,
            508.36,
            539.44,
            587.49,
            580.33,
            543.45,
            597.15,
            597.06,
            602.64,
            640.74,
            649.14,
            660.36,
            677.23,
            723.78,
            681.28,
            703.79,
            757.39,
            808.14,
            854.65,
            915.26,
            915.13,
            899.47,
            904.98,
            935.91,
            945.65,
            1026.0,
            890.35,
            976.28,
            922.54,
            942.15,
            942.02,
            838.95,
            864.2,
            865.49,
            773.75,
            734.18,
            749.57,
            695.93,
            663.43,
            642.21,
            574.52,
            497.0,
            532.12,
            489.81,
            448.93,
            424.94,
            354.53,
            357.29,
            305.2,
            312.19,
            275.58,
            286.79,
            271.28,
            240.32,
            198.13,
            209.34,
            196.66,
            230.34,
            219.07,
            169.89,
            174.08,
            183.88,
            138.94,
            133.3,
            120.66,
            154.3,
            117.81,
            119.2,
            120.58,
            133.18,
            120.54,
            124.73,
            114.9,
            117.68,
            124.67,
            116.24,
            100.82,
            123.21,
            117.59,
            89.574,
            103.55,
            69.956,
            102.12,
            74.129,
            74.117,
            81.095,
            69.898,
            89.454,
            88.041,
            71.26,
            90.805,
            104.76,
            89.378,
            87.966,
            65.614,
            85.144,
            93.502,
            59.999,
            87.889,
            83.69,
            80.886,
            98.998,
            94.798,
            75.267,
            75.254,
            59.913,
            84.979,
            89.142,
            96.089,
            83.54,
            75.173,
            59.849,
            109.93,
            64.001,
            80.682,
            65.368,
            83.433,
            69.515,
            87.573,
            87.556,
            77.813,
            66.684,
            68.061,
            69.437,
            69.424,
            84.681,
            48.578,
            67.997,
            66.596,
            65.196,
            69.344,
            95.677,
            80.408,
            80.393,
            76.22,
            44.337,
            52.64,
            80.331,
            54.005,
            81.683,
            44.294,
            63.66,
            78.868,
            81.619,
            66.389,
            58.079,
            69.127,
            69.113,
            74.628,
            78.758,
            78.742,
            63.533,
            63.52,
            41.418,
            75.918,
            69.002,
            67.608,
            75.871,
            59.305,
            70.325,
            55.145,
            86.836,
            66.147,
            34.445,
            42.702,
            66.106,
            55.077,
            56.442,
            63.313,
            82.564,
            66.038,
            64.648,
            66.01,
            76.995,
            64.608,
            53.599,
            59.084,
            87.921,
            72.794,
            70.032,
            72.763,
            76.866,
            54.893,
            57.625,
            68.587,
            87.772,
            109.69,
            50.722,
            105.53,
            82.216,
            72.609,
            68.484,
            57.514,
            73.931,
            62.965,
            64.32,
            91.67,
            80.707,
            75.219,
            127.16,
            72.453,
            116.17,
            75.154,
            83.335,
            77.853,
            75.105,
            90.106,
            106.47,
            70.962,
            76.404,
            117.31,
            83.19,
            91.353,
            95.422,
            98.127,
            95.381,
            83.099,
            98.063,
            87.148,
            119.8,
            87.11,
            89.812,
            115.64,
            107.46,
            100.63,
            73.418,
            111.46,
            118.23,
            81.522,
            99.164,
            88.277,
            105.91,
            135.75,
            104.51,
            128.91,
            104.46,
            105.79,
            88.141,
            116.59,
            120.63,
            146.35,
            109.74,
            139.52,
            105.63,
            150.29,
            124.54,
            135.33,
            128.54,
            154.21,
            140.65,
            147.38,
            175.74,
            128.4,
            148.64,
            129.69,
            164.78,
            160.69,
            140.41,
            174.12,
            202.42,
            140.31,
            155.12,
            165.88,
            161.8,
            171.2,
            173.85,
            156.3,
            171.08,
            185.86,
            181.78,
            191.16,
            201.89,
            199.15,
            181.62,
            213.86,
            190.95,
            212.42,
            207.0,
            237.86,
            276.77,
            200.15,
            255.17,
            214.83,
            237.6,
            221.45,
            267.02,
            256.23,
            278.97,
            290.98,
            264.1,
            289.51,
            316.25,
            267.95,
            294.68,
            397.73,
            348.1,
            381.49,
            373.38,
            339.85,
            366.53,
            341.04,
            339.63,
            352.92,
            307.4,
            372.81,
            280.55,
            275.14,
            305.8,
            277.69,
            308.33,
            236.2,
            193.46,
            196.08,
            196.04,
            204.0,
            213.28,
            178.59,
            142.57,
            117.23,
            174.47,
            115.85,
            122.48,
            161.05,
            149.04,
            160.98,
            101.09,
            119.68,
            105.03,
            95.706,
            135.55,
            95.664,
            104.94,
            115.54,
            99.584,
            69.03,
            114.14,
            98.192,
            119.4,
            87.538,
            125.97,
            102.08,
            98.084,
            84.811,
            83.467,
            82.124,
            108.59,
            75.468,
            83.394,
            89.992,
            97.911,
            108.47,
            63.482,
            80.657,
            100.47,
            92.516,
            91.174,
            91.154,
            108.3,
            105.64,
            87.133,
            76.554,
            116.13,
            76.52,
            110.8,
            76.485,
            96.245,
            101.5,
            110.7,
            89.592,
            97.476,
            102.72,
            85.582,
            94.777,
            88.175,
            101.31,
            99.975,
            107.84,
            101.24,
            85.447,
            113.03,
            110.37,
            122.17,
            77.489,
            131.31,
            129.96,
            140.43,
            132.53,
            137.75,
            123.29,
            136.37,
            140.27,
            131.07,
            133.66,
            142.79,
            165.03,
            130.94,
            164.95,
            195.01,
            167.49,
            122.97,
            188.34,
            186.99,
            145.11,
            137.23,
            188.16,
            176.36,
            155.42,
            144.94,
            171.01,
            195.77,
            168.32,
            174.8,
            160.41,
            202.1,
            204.66,
            224.15,
            211.07,
            197.99,
            230.5,
            187.48,
            235.6,
            219.92,
            243.29,
            226.32,
            178.14,
            231.41,
            210.55,
            237.79,
            194.86,
            214.29,
            190.87,
            231.06,
            233.6,
            224.46,
            207.54,
            232.12,
            235.95,
            195.71,
            206.03,
            171.0,
            198.15,
            218.82,
            203.23,
            177.3,
            147.49,
            225.06,
            186.21,
            227.53,
            182.23,
            165.39,
            206.68,
            182.09,
            198.83,
            175.54,
            211.63,
            183.19,
            212.8,
            192.12,
            174.02,
            180.41,
            170.06,
            167.44,
            158.38,
            154.47,
            171.16,
            127.37,
            156.92,
            159.45,
            149.12,
            123.38,
            132.34,
            106.61,
            166.93,
            166.89,
            127.05,
            150.11,
            143.66,
            106.43,
            117.94,
            149.94,
            144.78,
            113.99,
            101.16,
            126.73,
            119.02,
            104.91,
            129.18,
            90.783,
            131.66,
            103.51,
            149.47,
            126.44,
            94.481,
            128.92,
            113.57,
            142.87,
            128.8,
            132.59,
            135.1,
            126.14,
            147.75,
            138.8,
            124.75,
            142.53,
            108.14,
            137.36,
            124.6,
            163.97,
            132.15,
            137.19,
            147.31,
            161.23,
            158.64,
            166.2,
            223.23,
            185.12,
            226.89,
            214.15,
            226.75,
            278.6,
            249.4,
            269.57,
            245.45,
            239.04,
            262.99,
            266.7,
            255.25,
            282.95,
            253.82,
            278.99,
            230.94,
            244.75,
            290.07,
            229.46,
            243.25,
            253.25,
            243.1,
            230.43,
            190.07,
            215.18,
            210.08,
            211.26,
            227.54,
            245.06,
            244.98,
            217.27,
            249.84,
            225.91,
            242.15,
            269.66,
            283.37,
            220.6,
            253.11,
            250.52,
            242.93,
            227.82,
            230.25,
            288.97,
            238.85,
            288.78,
            286.18,
            324.82,
            312.22,
            323.35,
            328.24,
            354.33,
            400.35,
            402.71,
            428.75,
            497.14,
            480.78,
            520.46,
            612.4,
            599.75,
            674.18,
            767.22,
            826.63,
            986.65,
            1144.1,
            1347.3,
            1416.4,
            1497.8,
            1757.9,
            1686.6,
            1615.4,
            1544.2,
            1359.1,
            1179.0,
            928.54,
            773.52,
            679.24,
            552.85,
            453.76,
            369.56,
            338.55,
            301.38,
            264.24,
            254.27,
            231.98,
            218.33,
            229.35,
            172.58,
            187.31,
            161.37,
            131.77,
            155.11,
            157.52,
            111.95,
            153.73,
            104.5,
            115.53,
            151.12,
            144.93,
            164.52,
            163.24,
            122.7,
            122.66,
            160.63,
            132.38,
            156.85,
            135.97,
            137.15,
            170.16,
            128.5,
            84.415,
            110.07,
            119.82,
            88.0,
            105.08,
            116.04,
            69.6,
            86.667,
            87.86,
            96.371,
            90.243,
            79.242,
            92.624,
            62.136,
            80.386,
            48.704,
            66.947,
            63.276,
            97.317,
            69.317,
            55.923,
            92.366,
            75.328,
            44.94,
            71.639,
            83.757,
            67.956,
            90.985,
            67.915,
            65.47,
            83.631,
            58.161,
            64.201,
            90.823,
            73.848,
            79.877,
            88.324,
            58.059,
            110.04,
            93.083,
            130.52,
            136.52,
            102.67,
            107.47,
            132.79,
            132.75,
            106.17,
            130.26,
            116.96,
            91.617,
            91.592,
            118.07,
            107.2,
            85.496,
            87.881,
            85.45,
            74.599,
            81.796,
            97.408,
            110.61,
            108.17,
            134.58,
            104.51,
            151.33,
            190.91,
            199.27,
            205.22,
            236.36,
            205.11,
            215.85,
            221.79,
            184.58,
            188.13,
            166.52,
            186.84,
            180.81,
            175.98,
            138.83,
            185.47,
            162.69,
            188.97,
            151.86,
            167.36,
            206.76,
            209.1,
            194.72,
            216.17,
            182.69,
            222.04,
            248.25,
            264.9,
            292.28,
            298.18,
            375.62,
            386.27,
            442.2,
            476.66,
            552.81,
            687.29,
            890.78,
            1012.0,
            1210.6,
            1361.5,
            1487.3,
            1581.0,
            1496.2,
            1506.6,
            1387.4,
            1181.5,
            960.19,
            767.51,
            668.76,
            581.93,
            484.44,
            402.43,
            391.66,
            352.42,
            346.42,
            307.2,
            322.56,
            322.49,
            265.52,
            292.73,
            287.92,
            325.77,
            300.83,
            285.37,
            277.03,
            329.05,
            349.09,
            311.16,
            333.57,
            319.31,
            270.76,
            248.24,
            180.82,
            220.96,
            190.19,
            207.87,
            242.06,
            205.41,
            236.05,
            212.4,
            186.4,
            220.56,
            202.82,
            214.56,
            199.18,
            193.24,
            223.82,
            215.53,
            256.68,
            244.85,
            209.48,
            243.54,
            302.29,
            297.51,
            329.17,
            377.26,
            434.73,
            527.41,
            658.78,
            723.15,
            883.72,
            1074.7,
            1225.7,
            1213.6,
            1188.6,
            1060.5,
            794.22,
            649.92,
            511.57,
            413.1,
            322.88,
            281.83,
            256.01,
            238.39,
            212.6,
            252.22,
            240.45,
            305.7,
            286.92,
            272.81,
            339.12,
            384.41,
            376.09,
            405.02,
            365.28,
            284.88,
            227.8,
            216.07,
            152.11,
            191.49,
            147.31,
            133.32,
            126.3,
            122.76,
            134.27,
            115.68,
            100.58,
            83.194,
            75.061,
            81.939,
            85.348,
            80.683,
            66.808,
            55.253,
            78.221,
            42.532,
            79.261,
            134.3,
            212.2,
            362.19,
            585.24,
            778.18,
            654.06
          ],
          [
            39.7,
            41.44,
            38.84,
            40.52,
            39.72,
            41.75,
            40.58,
            42.15,
            40.23,
            41.92,
            42.42,
            41.99,
            42.99,
            43.58,
            42.04,
            42.05,
            43.49,
            43.02,
            41.92,
            42.9,
            43.72,
            44.2,
            42.48,
            43.92,
            43.5,
            43.26,
            44.06,
            45.63,
            44.94,
            43.98,
            43.35,
            45.53,
            43.19,
            44.48,
            42.92,
            42.9,
            44.06,
            43.64,
            43.32,
            43.9,
            43.5,
            44.29,
            42.94,
            44.91,
            43.23,
            42.18,
            42.15,
            44.48,
            42.58,
            43.08,
            42.76,
            42.83,
            41.45,
            42.75,
            42.29,
            41.33,
            42.01,
            41.84,
            41.15,
            40.95,
            41.34,
            40.53,
            39.62,
            40.57,
            38.49,
            38.86,
            38.83,
            38.91,
            39.65,
            37.47,
            38.78,
            38.37,
            37.87,
            38.45,
            37.0,
            37.29,
            37.26,
            36.35,
            37.16,
            35.79,
            35.38,
            35.87,
            35.24,
            35.73,
            35.11,
            35.29,
            34.91,
            34.68,
            35.18,
            34.71,
            34.16,
            34.03,
            32.85,
            33.76,
            32.31,
            31.56,
            32.37,
            32.26,
            32.79,
            33.57,
            32.94,
            32.21,
            32.97,
            33.97,
            31.82,
            32.88,
            31.16,
            31.02,
            30.67,
            32.9,
            31.89,
            31.17,
            30.51,
            30.71,
            31.26,
            30.35,
            29.78,
            29.34,
            29.95,
            30.09,
            31.47,
            29.4,
            29.43,
            29.79,
            28.21,
            29.35,
            28.42,
            29.8,
            30.12,
            29.94,
            31.19,
            28.74,
            28.32,
            28.76,
            28.5,
            28.75,
            27.44,
            29.07,
            29.72,
            29.36,
            28.36,
            28.47,
            29.38,
            27.45,
            28.2,
            30.04,
            27.85,
            28.78,
            28.66,
            29.13,
            28.29,
            29.98,
            27.79,
            28.42,
            27.75,
            28.08,
            28.26,
            29.17,
            28.62,
            30.16,
            28.65,
            27.34,
            27.9,
            29.11,
            28.19,
            29.35,
            28.81,
            29.24,
            29.2,
            28.43,
            29.26,
            30.17,
            28.89,
            29.67,
            29.88,
            31.42,
            29.66,
            29.76,
            29.65,
            30.42,
            31.09,
            30.78,
            31.52,
            32.64,
            32.47,
            31.61,
            32.85,
            32.84,
            32.97,
            33.82,
            34.0,
            34.24,
            34.61,
            35.6,
            34.69,
            35.17,
            36.3,
            37.34,
            38.28,
            39.46,
            39.46,
            39.15,
            39.25,
            39.85,
            40.03,
            41.55,
            38.95,
            40.61,
            39.57,
            39.95,
            39.94,
            37.92,
            38.42,
            38.44,
            36.58,
            35.76,
            36.08,
            34.94,
            34.23,
            33.76,
            32.23,
            30.4,
            31.24,
            30.22,
            29.21,
            28.6,
            26.74,
            26.81,
            25.36,
            25.56,
            24.5,
            24.82,
            24.37,
            23.43,
            22.1,
            22.46,
            22.05,
            23.11,
            22.76,
            21.16,
            21.29,
            21.62,
            20.08,
            19.88,
            19.42,
            20.61,
            19.31,
            19.36,
            19.41,
            19.86,
            19.4,
            19.55,
            19.19,
            19.29,
            19.54,
            19.23,
            18.65,
            19.48,
            19.27,
            18.21,
            18.75,
            17.43,
            18.69,
            17.6,
            17.59,
            17.87,
            17.42,
            18.19,
            18.13,
            17.47,
            18.23,
            18.76,
            18.17,
            18.12,
            17.23,
            18.0,
            18.32,
            16.99,
            18.1,
            17.93,
            17.82,
            18.52,
            18.36,
            17.59,
            17.59,
            16.96,
            17.97,
            18.13,
            18.39,
            17.9,
            17.57,
            16.94,
            18.9,
            17.11,
            17.78,
            17.16,
            17.88,
            17.32,
            18.04,
            18.03,
            17.65,
            17.2,
            17.25,
            17.3,
            17.3,
            17.9,
            16.43,
            17.23,
            17.17,
            17.12,
            17.28,
            18.31,
            17.72,
            17.71,
            17.55,
            16.23,
            16.58,
            17.7,
            16.63,
            17.75,
            16.21,
            17.02,
            17.63,
            17.73,
            17.12,
            16.78,
            17.23,
            17.22,
            17.44,
            17.6,
            17.6,
            16.98,
            16.98,
            16.05,
            17.48,
            17.2,
            17.14,
            17.46,
            16.79,
            17.24,
            16.61,
            17.88,
            17.06,
            15.72,
            16.07,
            17.05,
            16.59,
            16.65,
            16.93,
            17.69,
            17.03,
            16.97,
            17.02,
            17.46,
            16.96,
            16.5,
            16.73,
            17.88,
            17.28,
            17.17,
            17.27,
            17.43,
            16.54,
            16.65,
            17.09,
            17.85,
            18.67,
            16.35,
            18.51,
            17.62,
            17.24,
            17.07,
            16.61,
            17.28,
            16.83,
            16.88,
            17.96,
            17.53,
            17.31,
            19.27,
            17.2,
            18.87,
            17.3,
            17.62,
            17.4,
            17.29,
            17.87,
            18.49,
            17.11,
            17.33,
            18.88,
            17.59,
            17.9,
            18.05,
            18.15,
            18.05,
            17.57,
            18.14,
            17.72,
            18.94,
            17.71,
            17.81,
            18.78,
            18.47,
            18.22,
            17.16,
            18.61,
            18.86,
            17.47,
            18.14,
            17.73,
            18.39,
            19.47,
            18.33,
            19.22,
            18.32,
            18.37,
            17.7,
            18.76,
            18.91,
            19.81,
            18.5,
            19.57,
            18.34,
            19.94,
            19.03,
            19.41,
            19.17,
            20.06,
            19.59,
            19.82,
            20.77,
            19.14,
            19.85,
            19.18,
            20.39,
            20.25,
            19.55,
            20.7,
            21.61,
            19.54,
            20.05,
            20.41,
            20.27,
            20.58,
            20.66,
            20.07,
            20.57,
            21.05,
            20.91,
            21.21,
            21.55,
            21.46,
            20.89,
            21.92,
            21.19,
            21.87,
            21.7,
            22.65,
            23.79,
            21.47,
            23.15,
            21.92,
            22.62,
            22.12,
            23.49,
            23.17,
            23.83,
            24.17,
            23.39,
            24.12,
            24.87,
            23.49,
            24.26,
            27.03,
            25.72,
            26.6,
            26.38,
            25.49,
            26.2,
            25.51,
            25.47,
            25.83,
            24.58,
            26.34,
            23.81,
            23.65,
            24.52,
            23.72,
            24.58,
            22.49,
            21.15,
            21.23,
            21.23,
            21.48,
            21.77,
            20.65,
            19.44,
            18.53,
            20.51,
            18.48,
            18.71,
            20.05,
            19.64,
            20.04,
            17.92,
            18.6,
            18.06,
            17.7,
            19.15,
            17.7,
            18.04,
            18.43,
            17.84,
            16.65,
            18.37,
            17.77,
            18.55,
            17.36,
            18.78,
            17.91,
            17.75,
            17.24,
            17.19,
            17.13,
            18.13,
            16.87,
            17.17,
            17.43,
            17.72,
            18.11,
            16.37,
            17.05,
            17.81,
            17.5,
            17.45,
            17.44,
            18.08,
            17.98,
            17.28,
            16.87,
            18.36,
            16.86,
            18.16,
            16.85,
            17.61,
            17.8,
            18.14,
            17.35,
            17.64,
            17.84,
            17.18,
            17.53,
            17.28,
            17.77,
            17.72,
            18.01,
            17.76,
            17.16,
            18.19,
            18.09,
            18.51,
            16.83,
            18.83,
            18.78,
            19.14,
            18.86,
            19.04,
            18.53,
            18.99,
            19.12,
            18.8,
            18.88,
            19.2,
            19.95,
            18.78,
            19.94,
            20.91,
            20.02,
            18.48,
            20.69,
            20.64,
            19.25,
            18.97,
            20.67,
            20.29,
            19.59,
            19.23,
            20.1,
            20.9,
            20.0,
            20.21,
            19.73,
            21.08,
            21.16,
            21.76,
            21.35,
            20.94,
            21.94,
            20.6,
            22.09,
            21.61,
            22.31,
            21.79,
            20.2,
            21.94,
            21.3,
            22.13,
            20.8,
            21.4,
            20.67,
            21.91,
            21.98,
            21.7,
            21.18,
            21.93,
            22.04,
            20.79,
            21.11,
            19.99,
            20.86,
            21.5,
            21.01,
            20.18,
            19.18,
            21.67,
            20.46,
            21.74,
            20.32,
            19.77,
            21.09,
            20.3,
            20.83,
            20.08,
            21.23,
            20.32,
            21.25,
            20.6,
            20.02,
            20.22,
            19.88,
            19.79,
            19.48,
            19.35,
            19.9,
            18.4,
            19.42,
            19.5,
            19.15,
            18.25,
            18.56,
            17.63,
            19.73,
            19.72,
            18.36,
            19.15,
            18.93,
            17.6,
            18.02,
            19.13,
            18.95,
            17.86,
            17.39,
            18.31,
            18.03,
            17.52,
            18.39,
            16.98,
            18.47,
            17.45,
            19.07,
            18.27,
            17.1,
            18.35,
            17.8,
            18.82,
            18.33,
            18.46,
            18.54,
            18.23,
            18.97,
            18.66,
            18.16,
            18.78,
            17.56,
            18.59,
            18.14,
            19.48,
            18.4,
            18.57,
            18.91,
            19.38,
            19.29,
            19.53,
            21.33,
            20.14,
            21.43,
            21.04,
            21.42,
            22.92,
            22.08,
            22.66,
            21.95,
            21.76,
            22.45,
            22.56,
            22.22,
            23.01,
            22.17,
            22.89,
            21.49,
            21.89,
            23.18,
            21.43,
            21.83,
            22.12,
            21.82,
            21.44,
            20.19,
            20.97,
            20.81,
            20.84,
            21.33,
            21.84,
            21.84,
            21.0,
            21.97,
            21.25,
            21.73,
            22.52,
            22.91,
            21.08,
            22.03,
            21.95,
            21.73,
            21.27,
            21.34,
            23.03,
            21.59,
            23.01,
            22.94,
            23.99,
            23.64,
            23.94,
            24.06,
            24.74,
            25.91,
            25.96,
            26.59,
            28.2,
            27.82,
            28.72,
            30.73,
            30.46,
            32.01,
            33.86,
            35.0,
            37.93,
            40.63,
            43.91,
            44.98,
            46.21,
            50.01,
            48.98,
            47.93,
            46.87,
            44.04,
            41.14,
            36.81,
            33.89,
            32.01,
            29.33,
            27.06,
            24.99,
            24.18,
            23.18,
            22.14,
            21.85,
            21.19,
            20.78,
            21.1,
            19.34,
            19.8,
            18.96,
            17.96,
            18.75,
            18.82,
            17.25,
            18.69,
            16.97,
            17.36,
            18.59,
            18.37,
            19.02,
            18.97,
            17.59,
            17.59,
            18.88,
            17.92,
            18.74,
            18.03,
            18.07,
            19.16,
            17.76,
            16.15,
            17.1,
            17.44,
            16.28,
            16.91,
            17.3,
            15.55,
            16.21,
            16.25,
            16.57,
            16.33,
            15.91,
            16.41,
            15.23,
            15.94,
            14.67,
            15.41,
            15.26,
            16.56,
            15.49,
            14.95,
            16.37,
            15.71,
            14.48,
            15.56,
            16.03,
            15.41,
            16.29,
            15.4,
            15.3,
            16.0,
            15.0,
            15.24,
            16.26,
            15.61,
            15.84,
            16.16,
            14.97,
            16.95,
            16.33,
            17.67,
            17.87,
            16.67,
            16.84,
            17.73,
            17.72,
            16.78,
            17.63,
            17.16,
            16.23,
            16.23,
            17.19,
            16.8,
            15.99,
            16.08,
            15.98,
            15.56,
            15.84,
            16.42,
            16.9,
            16.81,
            17.73,
            16.67,
            18.29,
            19.56,
            19.81,
            19.99,
            20.92,
            19.98,
            20.3,
            20.48,
            19.34,
            19.44,
            18.75,
            19.4,
            19.2,
            19.05,
            17.82,
            19.34,
            18.61,
            19.44,
            18.25,
            18.75,
            19.98,
            20.05,
            19.61,
            20.26,
            19.22,
            20.43,
            21.19,
            21.66,
            22.41,
            22.57,
            24.58,
            24.84,
            26.19,
            26.98,
            28.68,
            31.47,
            35.32,
            37.45,
            40.74,
            43.09,
            44.98,
            46.34,
            45.1,
            45.25,
            43.46,
            40.23,
            36.51,
            32.99,
            31.04,
            29.25,
            27.1,
            25.17,
            24.9,
            23.92,
            23.76,
            22.73,
            23.13,
            23.13,
            21.58,
            22.33,
            22.19,
            23.2,
            22.54,
            22.12,
            21.88,
            23.28,
            23.79,
            22.8,
            23.38,
            23.01,
            21.69,
            21.05,
            19.03,
            20.25,
            19.31,
            19.85,
            20.86,
            19.77,
            20.68,
            19.98,
            19.18,
            20.21,
            19.68,
            20.03,
            19.56,
            19.37,
            20.29,
            20.04,
            21.24,
            20.9,
            19.85,
            20.85,
            22.48,
            22.34,
            23.18,
            24.4,
            25.78,
            27.88,
            30.64,
            31.9,
            34.9,
            38.19,
            40.64,
            40.44,
            40.03,
            37.93,
            33.22,
            30.41,
            27.48,
            25.2,
            22.94,
            21.84,
            21.12,
            20.61,
            19.85,
            20.99,
            20.65,
            22.45,
            21.94,
            21.55,
            23.31,
            24.44,
            24.22,
            24.92,
            23.94,
            21.84,
            20.23,
            19.87,
            17.87,
            19.12,
            17.7,
            17.22,
            16.98,
            16.85,
            17.23,
            16.59,
            16.04,
            15.39,
            15.07,
            15.32,
            15.45,
            15.26,
            14.72,
            14.25,
            15.14,
            13.71,
            15.17,
            17.13,
            19.59,
            23.64,
            28.69,
            32.48,
            30.07
          ]
        ]
      }
    },
    "003": {
      "reaction": {
        "0": {
          "x4_code": "(92-U-233(N,F),,SIG,,RTE)",
          "0": {
            "code": [
              "92-U-233",
              [
                "N,F"
              ],
              ",,SIG,,RTE"
            ],
            "type": null,
            "target": "92-U-233",
            "process": "N,F",
            "sf49": ",,SIG,,RTE",
            "sf4": null,
            "sf5": null,
            "sf6": "SIG",
            "sf7": null,
            "sf8": "RTE",
            "sf9": null
          },
          "type": null,
          "free_text": ""
        }
      },
      "extra_information": {
        "status": {
          "0": [
            {
              "x4_code": "(TABLE)",
              "free_txt": [
                " .Data kept on punched cards at NEA/Data Bank."
              ]
            }
          ]
        }
      },
      "common": null,
      "data": {
        "heads": [
          "EN",
          "DATA",
          "DATA-ERR"
        ],
        "units": [
          "EV",
          "B*RT-EV",
          "B*RT-EV"
        ],
        "data": [
          [
            6.9897,
            6.9989,
            7.0081,
            7.0173,
            7.0265,
            7.0358,
            7.045,
            7.0543,
            7.0636,
            7.0729,
            7.0822,
            7.0916,
            7.101,
            7.1104,
            7.1198,
            7.1292,
            7.1386,
            7.1481,
            7.1576,
            7.1671,
            7.1766,
            7.1862,
            7.1957,
            7.2053,
            7.2149,
            7.2245,
            7.2341,
            7.2438,
            7.2535,
            7.2632,
            7.2729,
            7.2826,
            7.2924,
            7.3021,
            7.3119,
            7.3217,
            7.3316,
            7.3414,
            7.3513,
            7.3612,
            7.3711,
            7.381,
            7.391,
            7.4009,
            7.4109,
            7.4209,
            7.431,
            7.441,
            7.4511,
            7.4612,
            7.4713,
            7.4814,
            7.4916,
            7.5018,
            7.512,
            7.5222,
            7.5324,
            7.5427,
            7.553,
            7.5633,
            7.5736,
            7.5839,
            7.5943,
            7.6047,
            7.6151,
            7.6255,
            7.636,
            7.6464,
            7.6569,
            7.6674,
            7.678,
            7.6885,
            7.6991,
            7.7097,
            7.7203,
            7.731,
            7.7416,
            7.7523,
            7.763,
            7.7738,
            7.7845,
            7.7953,
            7.8061,
            7.8169,
            7.8278,
            7.8386,
            7.8495,
            7.8605,
            7.8714,
            7.8824,
            7.8933,
            7.9043,
            7.9154,
            7.9264,
            7.9375,
            7.9486,
            7.9597,
            7.9708,
            7.982,
            7.9932,
            8.0044,
            8.0157,
            8.0269,
            8.0382,
            8.0495,
            8.0609,
            8.0722,
            8.0836,
            8.095,
            8.1064,
            8.1179,
            8.1294,
            8.1409,
            8.1524,
            8.1639,
            8.1755,
            8.1871,
            8.1987,
            8.2104,
            8.2221,
            8.2338,
            8.2455,
            8.2572,
            8.269,
            8.2808,
            8.2926,
            8.3045,
            8.3164,
            8.3283,
            8.3402,
            8.3521,
            8.3641,
            8.3761,
            8.3882,
            8.4002,
            8.4123,
            8.4244,
            8.4366,
            8.4487,
            8.4609,
            8.4731,
            8.4854,
            8.4976,
            8.5099,
            8.5222,
            8.5346,
            8.5469,
            8.5594,
            8.5718,
            8.5842,
            8.5967,
            8.6092,
            8.6218,
            8.6343,
            8.6469,
            8.6595,
            8.6722,
            8.6848,
            8.6976,
            8.7103,
            8.723,
            8.7358,
            8.7486,
            8.7615,
            8.7744,
            8.7873,
            8.8002,
            8.8131,
            8.8261,
            8.8391,
            8.8522,
            8.8652,
            8.8783,
            8.8915,
            8.9046,
            8.9178,
            8.931,
            8.9443,
            8.9576,
            8.9709,
            8.9842,
            8.9976,
            9.0109,
            9.0244,
            9.0378,
            9.0513,
            9.0648,
            9.0784,
            9.092,
            9.1056,
            9.1192,
            9.1329,
            9.1465,
            9.1603,
            9.174,
            9.1878,
            9.2017,
            9.2155,
            9.2294,
            9.2433,
            9.2572,
            9.2712,
            9.2852,
            9.2993,
            9.3134,
            9.3275,
            9.3416,
            9.3558,
            9.37,
            9.3842,
            9.3985,
            9.4128,
            9.4271,
            9.4415,
            9.4559,
            9.4703,
            9.4848,
            9.4993,
            9.5138,
            9.5284,
            9.543,
            9.5576,
            9.5723,
            9.5869,
            9.6017,
            9.6164,
            9.6313,
            9.6461,
            9.6609,
            9.6759,
            9.6908,
            9.7058,
            9.7208,
            9.7358,
            9.7509,
            9.766,
            9.7811,
            9.7963,
            9.8116,
            9.8268,
            9.8421,
            9.8574,
            9.8728,
            9.8882,
            9.9036,
            9.9191,
            9.9346,
            9.9501,
            9.9657,
            9.9813,
            9.997,
            10.013,
            10.028,
            10.044,
            10.06,
            10.076,
            10.092,
            10.107,
            10.123,
            10.14,
            10.156,
            10.172,
            10.188,
            10.204,
            10.22,
            10.236,
            10.253,
            10.269,
            10.285,
            10.301,
            10.318,
            10.334,
            10.351,
            10.367,
            10.384,
            10.401,
            10.417,
            10.434,
            10.451,
            10.467,
            10.484,
            10.501,
            10.518,
            10.535,
            10.552,
            10.569,
            10.586,
            10.603,
            10.62,
            10.637,
            10.655,
            10.672,
            10.689,
            10.706,
            10.724,
            10.741,
            10.759,
            10.776,
            10.794,
            10.811,
            10.829,
            10.847,
            10.864,
            10.882,
            10.9,
            10.918,
            10.936,
            10.954,
            10.972,
            10.99,
            11.008,
            11.026,
            11.044,
            11.062,
            11.081,
            11.099,
            11.117,
            11.136,
            11.154,
            11.173,
            11.191,
            11.21,
            11.228,
            11.247,
            11.266,
            11.285,
            11.303,
            11.322,
            11.341,
            11.36,
            11.379,
            11.398,
            11.417,
            11.436,
            11.456,
            11.475,
            11.494,
            11.513,
            11.533,
            11.552,
            11.572,
            11.591,
            11.611,
            11.63,
            11.65,
            11.67,
            11.69,
            11.71,
            11.73,
            11.749,
            11.769,
            11.789,
            11.809,
            11.83,
            11.85,
            11.87,
            11.89,
            11.911,
            11.931,
            11.952,
            11.972,
            11.993,
            12.013,
            12.034,
            12.055,
            12.076,
            12.096,
            12.117,
            12.138,
            12.159,
            12.18,
            12.201,
            12.222,
            12.244,
            12.265,
            12.286,
            12.308,
            12.329,
            12.35,
            12.372,
            12.394,
            12.415,
            12.437,
            12.459,
            12.481,
            12.503,
            12.525,
            12.546,
            12.569,
            12.591,
            12.613,
            12.635,
            12.657,
            12.68,
            12.702,
            12.725,
            12.747,
            12.77,
            12.792,
            12.815,
            12.838,
            12.861,
            12.884,
            12.906,
            12.929,
            12.953,
            12.976,
            12.999,
            13.022,
            13.046,
            13.069,
            13.092,
            13.116,
            13.14,
            13.163,
            13.187,
            13.211,
            13.234,
            13.258,
            13.282,
            13.306,
            13.33,
            13.355,
            13.379,
            13.403,
            13.428,
            13.452,
            13.476,
            13.501,
            13.526,
            13.55,
            13.575,
            13.6,
            13.625,
            13.65,
            13.675,
            13.7,
            13.725,
            13.75,
            13.776,
            13.801,
            13.826,
            13.852,
            13.878,
            13.903,
            13.929,
            13.955,
            13.981,
            14.007,
            14.033,
            14.059,
            14.085,
            14.111,
            14.137,
            14.164,
            14.19,
            14.217,
            14.243,
            14.27,
            14.297,
            14.324,
            14.351,
            14.378,
            14.405,
            14.432,
            14.459,
            14.486,
            14.514,
            14.541,
            14.569,
            14.596,
            14.624,
            14.652,
            14.679,
            14.707,
            14.735,
            14.763,
            14.792,
            14.82,
            14.848,
            14.877,
            14.905,
            14.934,
            14.962,
            14.991,
            15.02,
            15.049,
            15.078,
            15.107,
            15.136,
            15.165,
            15.195,
            15.224,
            15.253,
            15.283,
            15.313,
            15.342,
            15.372,
            15.402,
            15.432,
            15.462,
            15.492,
            15.523,
            15.553,
            15.584,
            15.614,
            15.645,
            15.676,
            15.706,
            15.737,
            15.768,
            15.799,
            15.862,
            15.893,
            15.924,
            15.956,
            15.988,
            16.02,
            16.051,
            16.083,
            16.115,
            16.147,
            16.18,
            16.212,
            16.244,
            16.277,
            16.309,
            16.342,
            16.375,
            16.408,
            16.441,
            16.474,
            16.507,
            16.54,
            16.574,
            16.607,
            16.641,
            16.675,
            16.708,
            16.742,
            16.776,
            16.81,
            16.845,
            16.879,
            16.913,
            16.948,
            16.983,
            17.017,
            17.052,
            17.087,
            17.122,
            17.157,
            17.193,
            17.228,
            17.264,
            17.299,
            17.335,
            17.371,
            17.407,
            17.443,
            17.479,
            17.515,
            17.552,
            17.588,
            17.625,
            17.661,
            17.698,
            17.735,
            17.772,
            17.81,
            17.847,
            17.884,
            17.922,
            17.96,
            17.997,
            18.035,
            18.073,
            18.111,
            18.15,
            18.188,
            18.227,
            18.265,
            18.304,
            18.343,
            18.382,
            18.421,
            18.46,
            18.5,
            18.539,
            18.579,
            18.618,
            18.658,
            18.698,
            18.739,
            18.779,
            18.819,
            18.86,
            18.901,
            18.941,
            18.982,
            19.023,
            19.065,
            19.106,
            19.147,
            19.189,
            19.231,
            19.273,
            19.315,
            19.357,
            19.399,
            19.441,
            19.484,
            19.527,
            19.569,
            19.612,
            19.656,
            19.699,
            19.742,
            19.786,
            19.829,
            19.873,
            19.917,
            19.961,
            20.006,
            20.05,
            20.095,
            20.139,
            20.184,
            20.229,
            20.275,
            20.32,
            20.365,
            20.411,
            20.457,
            20.503,
            20.549,
            20.595,
            20.642,
            20.688,
            20.735,
            20.782,
            20.829,
            20.876,
            20.923,
            20.971,
            21.019,
            21.066,
            21.115,
            21.163,
            21.211,
            21.26,
            21.308,
            21.357,
            21.406,
            21.455,
            21.504,
            21.554,
            21.604,
            21.654,
            21.704,
            21.754,
            21.804,
            21.855,
            21.906,
            21.957,
            22.008,
            22.059,
            22.11,
            22.162,
            22.214,
            22.266,
            22.318,
            22.37,
            22.423,
            22.476,
            22.528,
            22.582,
            22.635,
            22.688,
            22.742,
            22.796,
            22.85,
            22.904,
            22.959,
            23.013,
            23.068,
            23.123,
            23.178,
            23.234,
            23.289,
            23.345,
            23.401,
            23.457,
            23.514,
            23.57,
            23.627,
            23.684,
            23.741,
            23.799,
            23.857,
            23.915,
            23.973,
            24.031,
            24.089,
            24.148,
            24.207,
            24.266,
            24.326,
            24.385,
            24.445,
            24.505,
            24.565,
            24.626,
            24.686,
            24.747,
            24.808,
            24.87,
            24.931,
            24.993,
            25.055,
            25.118,
            25.18,
            25.243,
            25.306,
            25.369,
            25.432,
            25.496,
            25.56,
            25.624,
            25.689,
            25.753,
            25.818,
            25.884,
            25.949,
            26.014,
            26.08,
            26.147,
            26.213,
            26.28,
            26.347,
            26.414,
            26.481,
            26.549,
            26.617,
            26.685,
            26.753,
            26.822,
            26.891,
            26.96,
            27.03,
            27.1,
            27.17,
            27.24,
            27.311,
            27.382,
            27.453,
            27.524,
            27.596,
            27.668,
            27.74,
            27.813,
            27.886,
            27.959,
            28.032,
            28.106,
            28.18,
            28.254,
            28.329,
            28.404,
            28.479,
            28.555,
            28.63,
            28.706,
            28.783,
            28.859,
            28.937,
            29.014,
            29.092,
            29.169,
            29.248,
            29.326,
            29.405,
            29.484,
            29.564,
            29.644,
            29.724,
            29.804,
            29.885,
            29.966,
            30.048,
            30.13,
            30.212,
            30.294,
            30.377,
            30.46,
            30.544,
            30.628,
            30.712,
            30.796,
            30.881,
            30.967,
            31.052,
            31.138,
            31.224,
            31.311,
            31.398,
            31.486,
            31.573,
            31.661,
            31.75,
            31.839,
            31.928,
            32.018,
            32.108,
            32.198,
            32.289,
            32.38,
            32.471,
            32.563,
            32.656,
            32.748,
            32.842,
            32.935,
            33.029,
            33.123,
            33.218,
            33.313,
            33.409,
            33.504,
            33.601,
            33.698,
            33.795,
            33.892,
            33.99,
            34.089,
            34.188,
            34.287,
            34.387,
            34.487,
            34.588,
            34.689,
            34.79,
            34.892,
            34.995,
            35.097,
            35.201,
            35.305,
            35.409,
            35.513,
            35.619,
            35.724,
            35.83,
            35.937,
            36.044,
            36.151,
            36.259,
            36.368,
            36.477,
            36.586,
            36.696,
            36.807,
            36.918,
            37.029,
            37.141,
            37.253,
            37.366,
            37.48,
            37.594,
            37.708,
            37.824,
            37.939,
            38.055,
            38.172,
            38.289,
            38.407,
            38.525,
            38.644,
            38.763,
            38.883,
            39.003,
            39.125,
            39.246,
            39.368,
            39.491,
            39.614,
            39.738,
            39.863,
            39.988,
            40.114,
            40.24,
            40.366,
            40.494,
            40.622,
            40.751,
            40.88,
            41.01,
            41.14,
            41.272,
            41.403,
            41.536,
            41.669,
            41.802,
            41.937,
            42.071,
            42.207,
            42.343,
            42.48,
            42.618,
            42.756,
            42.895,
            43.035,
            43.175,
            43.316,
            43.458,
            43.6,
            43.743,
            43.887,
            44.031,
            44.176,
            44.322,
            44.469,
            44.616,
            44.765,
            44.913,
            45.063,
            45.213,
            45.364,
            45.516,
            45.669,
            45.822,
            45.976,
            46.131,
            46.287,
            46.444,
            46.601,
            46.759,
            46.918,
            47.078,
            47.238,
            47.399,
            47.562,
            47.725,
            47.889,
            48.053,
            48.219,
            48.385,
            48.552,
            48.721,
            48.89,
            49.06,
            49.23,
            49.402,
            49.575,
            49.748,
            49.923,
            50.098,
            50.274,
            50.451,
            50.629,
            50.808,
            50.989,
            51.169,
            51.351,
            51.534,
            51.718,
            51.903,
            52.089,
            52.276,
            52.464,
            52.653,
            52.843,
            53.033,
            53.225,
            53.418,
            53.613,
            53.808,
            54.004,
            54.201,
            54.399,
            54.599,
            54.799,
            55.001,
            55.204,
            55.408,
            55.613,
            55.819,
            56.026,
            56.235,
            56.444,
            56.655,
            56.867,
            57.08,
            57.295,
            57.51,
            57.727,
            57.945,
            58.165,
            58.385,
            58.607,
            58.83,
            59.054,
            59.28,
            59.507,
            59.735,
            59.964,
            60.195,
            60.427,
            60.661,
            60.896,
            61.132,
            61.37,
            61.609,
            61.849,
            62.091,
            62.334,
            62.579,
            62.825
          ],
          [
            455.24,
            1297.1,
            984.07,
            1102.1,
            965.11,
            856.7,
            781.48,
            661.6,
            638.37,
            545.0,
            533.98,
            529.86,
            381.26,
            415.33,
            368.12,
            392.5,
            349.43,
            310.39,
            297.4,
            267.24,
            264.91,
            238.74,
            231.73,
            241.89,
            253.0,
            223.24,
            211.59,
            234.1,
            221.54,
            185.37,
            190.86,
            161.41,
            147.12,
            144.16,
            135.57,
            133.58,
            155.09,
            146.52,
            138.91,
            133.18,
            132.16,
            144.25,
            97.355,
            94.488,
            105.65,
            114.0,
            102.73,
            98.009,
            109.16,
            126.81,
            130.48,
            115.51,
            134.08,
            126.57,
            148.83,
            129.24,
            135.68,
            124.47,
            144.85,
            129.0,
            106.68,
            113.12,
            150.15,
            196.4,
            122.23,
            129.58,
            125.82,
            158.13,
            117.39,
            118.26,
            162.53,
            106.15,
            115.32,
            139.24,
            102.3,
            140.94,
            112.33,
            101.23,
            114.05,
            102.96,
            96.47,
            115.7,
            91.774,
            70.627,
            86.17,
            107.19,
            81.487,
            88.758,
            80.473,
            87.733,
            91.33,
            66.627,
            108.54,
            64.713,
            72.866,
            81.917,
            63.668,
            88.161,
            91.728,
            86.214,
            54.41,
            37.152,
            57.948,
            66.948,
            57.855,
            53.291,
            57.759,
            46.89,
            63.968,
            35.106,
            52.165,
            48.524,
            79.902,
            31.394,
            82.445,
            61.776,
            65.294,
            75.063,
            69.634,
            58.863,
            57.024,
            55.186,
            48.018,
            76.395,
            47.919,
            41.665,
            63.76,
            60.155,
            45.068,
            33.544,
            51.144,
            57.254,
            79.188,
            45.703,
            50.92,
            37.709,
            37.666,
            60.372,
            74.287,
            57.616,
            73.244,
            91.449,
            94.823,
            62.561,
            60.751,
            70.215,
            71.864,
            74.371,
            92.423,
            104.39,
            90.475,
            65.408,
            66.187,
            60.096,
            100.32,
            95.919,
            88.957,
            83.722,
            106.66,
            92.036,
            77.45,
            75.654,
            96.783,
            94.967,
            98.235,
            98.111,
            103.06,
            98.708,
            83.415,
            95.933,
            90.77,
            79.742,
            103.11,
            102.98,
            72.748,
            107.73,
            60.886,
            80.801,
            99.834,
            102.2,
            54.77,
            106.91,
            72.013,
            80.189,
            63.573,
            73.389,
            64.236,
            79.783,
            87.074,
            50.046,
            83.577,
            88.383,
            67.021,
            93.059,
            97.018,
            78.169,
            100.03,
            110.46,
            138.72,
            108.57,
            143.23,
            142.25,
            138.84,
            128.19,
            188.43,
            201.87,
            204.03,
            180.52,
            201.93,
            192.88,
            180.66,
            217.97,
            228.87,
            208.68,
            206.04,
            232.02,
            188.89,
            212.45,
            183.69,
            215.11,
            172.2,
            209.87,
            193.08,
            161.37,
            172.97,
            186.12,
            174.14,
            177.08,
            175.31,
            187.62,
            167.11,
            167.7,
            156.6,
            198.45,
            175.68,
            182.47,
            184.6,
            192.92,
            181.87,
            180.9,
            196.92,
            190.53,
            191.87,
            197.05,
            190.69,
            188.18,
            215.6,
            193.91,
            199.83,
            227.92,
            252.89,
            242.7,
            256.17,
            283.33,
            269.34,
            272.86,
            315.86,
            291.26,
            295.52,
            339.88,
            331.22,
            318.8,
            355.46,
            341.53,
            399.18,
            450.71,
            501.37,
            475.35,
            528.15,
            565.86,
            641.68,
            703.89,
            766.73,
            854.85,
            912.19,
            1050.7,
            1078.7,
            1265.1,
            1322.6,
            1420.1,
            1494.4,
            1513.7,
            1533.8,
            1506.5,
            1533.2,
            1596.7,
            1393.9,
            1508.3,
            1436.3,
            1376.1,
            1269.0,
            1195.2,
            1076.8,
            995.92,
            893.24,
            826.62,
            757.9,
            655.0,
            604.07,
            546.69,
            530.9,
            517.34,
            476.17,
            437.26,
            410.75,
            409.67,
            383.96,
            323.54,
            396.3,
            346.1,
            332.81,
            346.95,
            302.69,
            302.43,
            302.88,
            307.66,
            285.85,
            262.64,
            255.25,
            290.85,
            294.18,
            287.49,
            300.82,
            258.45,
            297.47,
            304.34,
            300.52,
            318.77,
            308.55,
            295.5,
            270.42,
            309.19,
            283.42,
            305.13,
            332.46,
            330.77,
            289.54,
            319.63,
            304.56,
            306.42,
            282.23,
            273.56,
            257.87,
            243.62,
            230.08,
            220.08,
            252.11,
            205.02,
            191.57,
            208.87,
            221.26,
            212.01,
            181.87,
            177.54,
            205.91,
            226.6,
            202.8,
            201.24,
            210.78,
            209.22,
            212.5,
            208.87,
            221.13,
            226.47,
            206.27,
            224.02,
            251.39,
            227.09,
            211.77,
            202.67,
            227.2,
            224.27,
            233.68,
            201.98,
            250.38,
            211.21,
            218.55,
            217.0,
            232.49,
            262.27,
            223.25,
            239.39,
            260.25,
            251.88,
            253.71,
            294.15,
            324.37,
            335.61,
            289.35,
            356.65,
            344.19,
            372.89,
            403.57,
            457.75,
            480.9,
            532.89,
            572.72,
            646.69,
            727.24,
            722.59,
            860.48,
            961.35,
            1019.3,
            1054.4,
            1183.6,
            1204.5,
            1200.8,
            1278.9,
            1293.1,
            1242.8,
            1117.7,
            1021.3,
            943.56,
            807.1,
            719.82,
            659.09,
            574.04,
            480.58,
            420.88,
            370.5,
            364.25,
            317.29,
            304.54,
            290.5,
            235.86,
            260.52,
            236.75,
            262.02,
            253.3,
            233.51,
            252.2,
            248.06,
            260.85,
            255.42,
            277.27,
            233.55,
            298.8,
            292.06,
            282.1,
            306.41,
            351.33,
            343.92,
            408.72,
            399.98,
            411.84,
            410.82,
            393.11,
            415.21,
            372.52,
            392.03,
            338.56,
            303.73,
            291.95,
            285.94,
            237.85,
            231.9,
            178.22,
            193.96,
            232.53,
            156.79,
            185.18,
            180.58,
            170.28,
            141.67,
            159.86,
            153.4,
            130.56,
            134.22,
            126.54,
            123.28,
            130.07,
            118.03,
            107.26,
            123.45,
            97.04,
            105.08,
            87.488,
            94.276,
            89.822,
            97.217,
            90.902,
            76.511,
            93.841,
            97.48,
            65.133,
            95.44,
            47.676,
            68.664,
            84.67,
            92.002,
            69.092,
            90.598,
            116.38,
            86.126,
            102.64,
            121.58,
            144.78,
            209.0,
            281.06,
            337.7,
            458.41,
            509.29,
            690.62,
            798.47,
            855.59,
            838.99,
            805.39,
            749.38,
            652.22,
            630.41,
            572.29,
            466.49,
            389.53,
            332.46,
            347.23,
            331.25,
            320.11,
            312.01,
            325.53,
            327.03,
            351.31,
            375.55,
            396.15,
            413.72,
            435.44,
            441.61,
            481.15,
            523.01,
            585.62,
            609.46,
            658.81,
            653.45,
            655.82,
            634.49,
            663.51,
            648.71,
            659.94,
            696.52,
            728.92,
            780.1,
            814.73,
            820.45,
            760.35,
            737.95,
            530.82,
            511.58,
            412.18,
            345.12,
            271.17,
            249.33,
            206.51,
            185.93,
            156.06,
            151.85,
            155.78,
            117.31,
            119.53,
            118.84,
            98.462,
            110.53,
            111.0,
            103.4,
            116.58,
            99.174,
            119.25,
            104.18,
            105.81,
            125.25,
            114.81,
            126.18,
            104.86,
            97.898,
            127.55,
            140.59,
            150.74,
            146.04,
            201.19,
            252.27,
            269.11,
            322.31,
            362.35,
            376.78,
            366.81,
            345.52,
            272.22,
            282.15,
            255.35,
            285.04,
            255.47,
            262.57,
            275.28,
            312.16,
            349.54,
            396.95,
            394.92,
            392.33,
            364.55,
            394.44,
            398.57,
            460.77,
            554.68,
            686.32,
            819.96,
            993.45,
            1160.0,
            1206.7,
            1249.0,
            1161.3,
            1083.3,
            908.51,
            734.03,
            628.38,
            506.35,
            441.36,
            380.34,
            345.31,
            316.39,
            278.73,
            281.24,
            245.87,
            244.01,
            265.71,
            240.29,
            229.69,
            216.92,
            220.01,
            206.18,
            221.26,
            231.41,
            230.12,
            204.37,
            230.26,
            240.37,
            254.8,
            246.99,
            269.51,
            315.23,
            316.57,
            401.57,
            436.82,
            498.4,
            488.27,
            559.91,
            593.27,
            602.96,
            548.25,
            481.3,
            466.96,
            355.26,
            346.93,
            360.51,
            294.02,
            284.7,
            248.23,
            267.7,
            280.76,
            284.23,
            302.02,
            301.23,
            346.53,
            372.69,
            400.39,
            433.86,
            516.89,
            603.48,
            643.52,
            785.66,
            961.21,
            1039.2,
            1174.3,
            1296.5,
            1200.0,
            1167.5,
            1191.6,
            1266.3,
            1393.7,
            1590.8,
            1837.0,
            1962.0,
            1741.1,
            1661.5,
            1428.8,
            1266.6,
            1062.7,
            869.49,
            843.85,
            715.85,
            658.36,
            534.37,
            570.52,
            507.63,
            487.1,
            483.57,
            416.32,
            404.13,
            365.79,
            361.87,
            342.08,
            376.05,
            339.93,
            416.74,
            400.53,
            473.07,
            463.47,
            485.44,
            421.95,
            422.07,
            409.0,
            370.09,
            356.08,
            324.88,
            326.6,
            306.1,
            303.29,
            278.82,
            288.63,
            269.24,
            227.76,
            258.2,
            241.4,
            236.66,
            223.42,
            239.22,
            274.5,
            288.23,
            348.36,
            445.26,
            523.06,
            554.42,
            597.17,
            573.26,
            499.28,
            446.26,
            377.97,
            341.49,
            332.77,
            332.46,
            308.95,
            303.24,
            287.68,
            278.06,
            304.85,
            294.74,
            309.18,
            306.93,
            276.76,
            322.51,
            331.49,
            362.94,
            359.67,
            343.73,
            319.54,
            284.2,
            230.94,
            219.06,
            191.68,
            229.32,
            169.53,
            174.21,
            163.89,
            158.91,
            194.95,
            177.89,
            206.63,
            211.73,
            215.85,
            222.86,
            249.52,
            248.8,
            251.45,
            280.4,
            287.31,
            292.29,
            328.76,
            303.66,
            309.57,
            314.51,
            320.88,
            401.8,
            400.0,
            557.01,
            629.9,
            664.8,
            653.78,
            623.89,
            533.66,
            423.8,
            343.81,
            330.32,
            287.23,
            260.2,
            215.38,
            194.08,
            146.13,
            154.42,
            168.3,
            165.81,
            194.59,
            180.43,
            238.02,
            298.77,
            358.48,
            393.92,
            419.08,
            402.93,
            342.81,
            292.51,
            249.71,
            276.27,
            314.8,
            332.04,
            357.54,
            331.44,
            379.9,
            415.39,
            424.67,
            433.92,
            699.79,
            697.34,
            565.89,
            401.76,
            293.63,
            221.74,
            210.6,
            231.37,
            259.83,
            297.34,
            291.63,
            354.91,
            345.08,
            341.61,
            354.44,
            369.06,
            381.84,
            389.19,
            411.41,
            406.55,
            411.6,
            465.24,
            477.43,
            498.59,
            496.82,
            539.89,
            549.75,
            561.81,
            508.56,
            440.65,
            388.04,
            366.3,
            356.18,
            343.41,
            341.35,
            334.84,
            317.68,
            280.57,
            270.14,
            266.81,
            288.73,
            268.14,
            247.14,
            293.32,
            355.32,
            445.89,
            464.91,
            418.3,
            313.25,
            226.84,
            207.33,
            227.35,
            264.45,
            266.86,
            367.35,
            304.5,
            252.67,
            224.08,
            159.74,
            134.76,
            92.382,
            115.38,
            110.94,
            98.249,
            95.565,
            144.97,
            163.5,
            206.71,
            232.53,
            281.67,
            283.61,
            321.84,
            293.1,
            320.9,
            272.38,
            292.84,
            276.69,
            272.6,
            257.78,
            259.3,
            281.4,
            250.32,
            255.69,
            287.59,
            254.01,
            198.26,
            150.29,
            130.12,
            96.337,
            124.8,
            140.02,
            146.29,
            169.12,
            211.02,
            293.58,
            383.21,
            322.33,
            231.93,
            140.4,
            128.03,
            163.39,
            194.05,
            187.15,
            145.3,
            123.3,
            92.082,
            120.57,
            117.12,
            137.99,
            112.31,
            101.75,
            109.61,
            88.196,
            89.791,
            74.692,
            79.63,
            90.807,
            109.87,
            169.65,
            203.15,
            205.04,
            157.17,
            152.05,
            157.71,
            210.08,
            267.73,
            265.42,
            224.34,
            154.08,
            110.72,
            108.14,
            126.93,
            174.41,
            390.3,
            625.41,
            706.6,
            523.18,
            311.95,
            216.18,
            176.02,
            139.2,
            145.15,
            142.55,
            169.17,
            179.11,
            198.34,
            166.98,
            177.29,
            137.56,
            129.34,
            111.47,
            104.1,
            93.539,
            95.43,
            103.32,
            116.79,
            133.81,
            189.49,
            288.85,
            358.49,
            338.14,
            300.78,
            316.62,
            411.94,
            418.86,
            452.99,
            427.9,
            500.85,
            521.32,
            416.19,
            348.58,
            412.18,
            521.64,
            614.38,
            718.09,
            706.04,
            656.77,
            565.82,
            530.45,
            604.03,
            625.33,
            623.45,
            512.92,
            461.02,
            506.08,
            431.45,
            370.04,
            231.64,
            175.77,
            149.66,
            133.1,
            127.93,
            150.26,
            163.48,
            206.26,
            216.3,
            333.84,
            369.25,
            355.05,
            104.61
          ],
          [
            35.73,
            68.96,
            56.08,
            60.67,
            55.04,
            50.61,
            47.55,
            42.83,
            41.86,
            38.27,
            37.79,
            37.57,
            32.14,
            33.29,
            31.58,
            32.38,
            30.84,
            29.46,
            28.98,
            27.94,
            27.83,
            26.95,
            26.69,
            26.99,
            27.32,
            26.33,
            25.94,
            26.63,
            26.2,
            25.05,
            25.2,
            24.28,
            23.83,
            23.73,
            23.46,
            23.38,
            24.0,
            23.73,
            23.49,
            23.31,
            23.27,
            23.61,
            22.25,
            22.15,
            22.46,
            22.68,
            22.35,
            22.21,
            22.51,
            23.01,
            23.1,
            22.66,
            23.19,
            22.96,
            23.6,
            23.02,
            23.19,
            22.86,
            23.44,
            22.97,
            22.33,
            22.5,
            23.56,
            24.95,
            22.73,
            22.93,
            22.82,
            23.75,
            22.56,
            22.57,
            23.85,
            22.21,
            22.46,
            23.14,
            22.07,
            23.17,
            22.34,
            22.01,
            22.36,
            22.04,
            21.85,
            22.38,
            21.7,
            21.11,
            21.52,
            22.09,
            21.37,
            21.56,
            21.32,
            21.5,
            21.59,
            20.91,
            22.04,
            20.83,
            21.03,
            21.27,
            20.76,
            21.41,
            21.49,
            21.32,
            20.46,
            20.0,
            20.52,
            20.75,
            20.49,
            20.36,
            20.46,
            20.16,
            20.59,
            19.82,
            20.24,
            20.13,
            20.94,
            19.66,
            20.98,
            20.41,
            20.48,
            20.73,
            20.56,
            20.26,
            20.19,
            20.13,
            19.92,
            20.65,
            19.88,
            19.7,
            20.25,
            20.14,
            19.73,
            19.42,
            19.84,
            19.98,
            20.54,
            19.64,
            19.76,
            19.4,
            19.38,
            19.94,
            20.28,
            19.83,
            20.21,
            20.68,
            20.75,
            19.87,
            19.8,
            20.03,
            20.05,
            20.09,
            20.55,
            20.86,
            20.45,
            19.77,
            19.76,
            19.58,
            20.63,
            20.49,
            20.28,
            20.12,
            20.71,
            20.29,
            19.88,
            19.81,
            20.35,
            20.28,
            20.34,
            20.32,
            20.43,
            20.29,
            19.86,
            20.17,
            20.01,
            19.69,
            20.29,
            20.27,
            19.44,
            20.35,
            19.08,
            19.58,
            20.07,
            20.11,
            18.84,
            20.19,
            19.24,
            19.43,
            18.97,
            19.21,
            18.95,
            19.33,
            19.5,
            18.52,
            19.36,
            19.47,
            18.88,
            19.55,
            19.63,
            19.11,
            19.67,
            19.92,
            20.67,
            19.83,
            20.75,
            20.7,
            20.59,
            20.27,
            21.93,
            22.29,
            22.33,
            21.64,
            22.23,
            21.95,
            21.58,
            22.62,
            22.91,
            22.31,
            22.21,
            22.93,
            21.68,
            22.33,
            21.49,
            22.36,
            21.13,
            22.16,
            21.67,
            20.76,
            21.06,
            21.41,
            21.06,
            21.12,
            21.05,
            21.37,
            20.78,
            20.78,
            20.45,
            21.59,
            20.94,
            21.11,
            21.15,
            21.36,
            21.03,
            20.98,
            21.41,
            21.21,
            21.23,
            21.36,
            21.16,
            21.07,
            21.82,
            21.19,
            21.34,
            22.11,
            22.8,
            22.49,
            22.85,
            23.61,
            23.19,
            23.27,
            24.48,
            23.76,
            23.86,
            25.12,
            24.85,
            24.47,
            25.51,
            25.09,
            26.75,
            28.25,
            29.73,
            28.94,
            30.49,
            31.59,
            33.85,
            35.71,
            37.6,
            40.26,
            41.99,
            46.22,
            47.05,
            52.78,
            54.52,
            57.5,
            59.76,
            60.31,
            60.89,
            59.99,
            60.77,
            62.69,
            56.38,
            59.86,
            57.6,
            55.7,
            52.38,
            50.08,
            46.43,
            43.94,
            40.8,
            38.77,
            36.68,
            33.59,
            32.06,
            30.35,
            29.87,
            29.45,
            28.24,
            27.09,
            26.31,
            26.26,
            25.51,
            23.79,
            25.83,
            24.39,
            24.0,
            24.38,
            23.12,
            23.1,
            23.1,
            23.21,
            22.59,
            21.94,
            21.72,
            22.68,
            22.76,
            22.56,
            22.91,
            21.73,
            22.79,
            22.97,
            22.84,
            23.34,
            23.04,
            22.66,
            21.96,
            23.01,
            22.28,
            22.87,
            23.61,
            23.54,
            22.39,
            23.2,
            22.77,
            22.81,
            22.13,
            21.88,
            21.44,
            21.04,
            20.66,
            20.38,
            21.23,
            19.95,
            19.58,
            20.02,
            20.34,
            20.08,
            19.27,
            19.14,
            19.88,
            20.42,
            19.77,
            19.71,
            19.95,
            19.9,
            19.97,
            19.86,
            20.17,
            20.3,
            19.75,
            20.21,
            20.93,
            20.26,
            19.84,
            19.59,
            20.23,
            20.13,
            20.37,
            19.52,
            20.79,
            19.73,
            19.91,
            19.86,
            20.26,
            21.03,
            19.98,
            20.4,
            20.94,
            20.7,
            20.73,
            21.8,
            22.59,
            22.88,
            21.63,
            23.42,
            23.07,
            23.83,
            24.64,
            26.1,
            26.71,
            28.12,
            29.2,
            31.21,
            33.42,
            33.27,
            37.08,
            39.86,
            41.45,
            42.41,
            45.98,
            46.54,
            46.4,
            48.55,
            48.91,
            47.47,
            43.96,
            41.25,
            39.07,
            35.28,
            32.86,
            31.18,
            28.84,
            26.3,
            24.68,
            23.32,
            23.14,
            21.88,
            21.53,
            21.14,
            19.7,
            20.33,
            19.7,
            20.34,
            20.1,
            19.57,
            20.04,
            19.92,
            20.24,
            20.08,
            20.64,
            19.49,
            21.17,
            20.98,
            20.7,
            21.32,
            22.48,
            22.27,
            23.95,
            23.71,
            24.0,
            23.96,
            23.48,
            24.04,
            22.91,
            23.4,
            21.99,
            21.07,
            20.75,
            20.58,
            19.34,
            19.17,
            17.79,
            18.18,
            19.14,
            17.21,
            17.91,
            17.79,
            17.51,
            16.78,
            17.22,
            17.05,
            16.47,
            16.55,
            16.34,
            16.25,
            16.4,
            16.09,
            15.81,
            16.2,
            15.54,
            15.72,
            15.28,
            15.43,
            15.31,
            15.48,
            15.31,
            14.95,
            15.36,
            15.44,
            14.63,
            15.36,
            14.19,
            14.68,
            15.06,
            15.23,
            14.66,
            15.17,
            15.79,
            15.03,
            15.43,
            15.88,
            16.44,
            18.02,
            19.81,
            21.22,
            24.26,
            25.54,
            30.15,
            32.89,
            34.33,
            33.88,
            32.99,
            31.54,
            29.04,
            28.47,
            26.97,
            24.28,
            22.31,
            20.86,
            21.22,
            20.8,
            20.51,
            20.29,
            20.62,
            20.64,
            21.23,
            21.82,
            22.32,
            22.74,
            23.27,
            23.4,
            24.37,
            25.4,
            26.95,
            27.53,
            28.74,
            28.59,
            28.63,
            28.08,
            28.78,
            28.39,
            28.65,
            29.55,
            30.33,
            31.59,
            32.43,
            32.55,
            31.03,
            30.45,
            25.3,
            24.81,
            22.35,
            20.68,
            18.86,
            18.31,
            17.26,
            16.75,
            16.01,
            15.9,
            15.98,
            15.04,
            15.08,
            15.06,
            14.55,
            14.83,
            14.83,
            14.64,
            14.94,
            14.51,
            14.99,
            14.61,
            14.64,
            15.1,
            14.83,
            15.1,
            14.57,
            14.39,
            15.09,
            15.4,
            15.63,
            15.5,
            16.82,
            18.03,
            18.42,
            19.69,
            20.64,
            20.97,
            20.72,
            20.19,
            18.42,
            18.65,
            17.99,
            18.69,
            17.97,
            18.13,
            18.42,
            19.29,
            20.17,
            21.29,
            21.23,
            21.15,
            20.47,
            21.17,
            21.26,
            22.72,
            24.94,
            28.06,
            31.21,
            35.31,
            39.24,
            40.32,
            41.29,
            39.19,
            37.32,
            33.16,
            29.02,
            26.5,
            23.61,
            22.06,
            20.6,
            19.76,
            19.07,
            18.17,
            18.22,
            17.37,
            17.32,
            17.81,
            17.2,
            16.94,
            16.63,
            16.69,
            16.36,
            16.7,
            16.93,
            16.88,
            16.27,
            16.86,
            17.09,
            17.42,
            17.22,
            17.74,
            18.79,
            18.81,
            20.78,
            21.58,
            23.0,
            22.75,
            24.39,
            25.14,
            25.35,
            24.07,
            22.51,
            22.17,
            19.57,
            19.36,
            19.67,
            18.11,
            17.89,
            17.03,
            17.47,
            17.76,
            17.83,
            18.23,
            18.2,
            19.23,
            19.82,
            20.44,
            21.19,
            23.07,
            25.03,
            25.93,
            29.14,
            33.09,
            34.83,
            37.85,
            40.58,
            38.38,
            37.62,
            38.14,
            39.79,
            42.61,
            47.0,
            52.46,
            55.21,
            50.25,
            48.44,
            43.22,
            39.57,
            35.0,
            30.66,
            30.07,
            27.19,
            25.88,
            23.09,
            23.88,
            22.46,
            21.98,
            21.89,
            20.37,
            20.08,
            19.2,
            19.1,
            18.64,
            19.39,
            18.57,
            20.28,
            19.9,
            21.51,
            21.28,
            21.76,
            20.33,
            20.32,
            20.01,
            19.13,
            18.8,
            18.09,
            18.12,
            17.65,
            17.57,
            17.01,
            17.22,
            16.78,
            15.83,
            16.5,
            16.12,
            16.0,
            15.69,
            16.03,
            16.81,
            17.11,
            18.43,
            20.55,
            22.24,
            22.91,
            23.83,
            23.29,
            21.66,
            20.49,
            18.98,
            18.16,
            17.96,
            17.94,
            17.41,
            17.27,
            16.91,
            16.69,
            17.27,
            17.03,
            17.34,
            17.28,
            16.6,
            17.6,
            17.78,
            18.46,
            18.37,
            18.01,
            17.47,
            16.68,
            15.5,
            15.23,
            14.61,
            15.43,
            14.09,
            14.19,
            13.94,
            13.82,
            14.62,
            14.23,
            14.85,
            14.95,
            15.03,
            15.18,
            15.75,
            15.73,
            15.77,
            16.39,
            16.53,
            16.63,
            17.41,
            16.85,
            16.97,
            17.06,
            17.19,
            18.91,
            18.86,
            22.17,
            23.68,
            24.39,
            24.15,
            23.51,
            21.6,
            19.27,
            17.56,
            17.26,
            16.32,
            15.73,
            14.75,
            14.27,
            13.2,
            13.38,
            13.68,
            13.61,
            14.23,
            13.91,
            15.15,
            16.45,
            17.71,
            18.44,
            18.96,
            18.61,
            17.33,
            16.25,
            15.32,
            15.88,
            16.69,
            17.04,
            17.57,
            17.01,
            18.01,
            18.74,
            18.93,
            19.11,
            24.54,
            24.48,
            21.78,
            18.39,
            16.11,
            14.57,
            14.32,
            14.76,
            15.35,
            16.14,
            16.01,
            17.32,
            17.11,
            17.02,
            17.28,
            17.57,
            17.83,
            17.97,
            18.41,
            18.3,
            18.39,
            19.48,
            19.72,
            20.14,
            20.09,
            20.95,
            21.13,
            21.36,
            20.28,
            18.89,
            17.8,
            17.34,
            17.12,
            16.85,
            16.8,
            16.65,
            16.29,
            15.51,
            15.28,
            15.2,
            15.65,
            15.21,
            14.76,
            15.72,
            16.98,
            18.81,
            19.19,
            18.23,
            16.08,
            14.27,
            13.85,
            14.27,
            15.03,
            15.07,
            17.13,
            15.83,
            14.75,
            14.15,
            12.77,
            12.23,
            11.29,
            11.79,
            11.69,
            11.4,
            11.33,
            12.4,
            12.79,
            13.7,
            14.23,
            15.24,
            15.27,
            16.04,
            15.45,
            16.01,
            15.0,
            15.42,
            15.08,
            14.98,
            14.67,
            14.69,
            15.14,
            14.49,
            14.59,
            15.24,
            14.54,
            13.38,
            12.35,
            11.91,
            11.17,
            11.78,
            12.1,
            12.23,
            12.71,
            13.58,
            15.26,
            17.05,
            15.82,
            13.98,
            12.05,
            11.78,
            12.52,
            13.16,
            13.01,
            12.12,
            11.64,
            10.95,
            11.56,
            11.48,
            11.92,
            11.36,
            11.12,
            11.29,
            10.81,
            10.84,
            10.5,
            10.6,
            10.84,
            11.24,
            12.51,
            13.19,
            13.22,
            12.22,
            12.1,
            12.21,
            13.29,
            14.45,
            14.4,
            13.55,
            12.09,
            11.16,
            11.1,
            11.49,
            12.48,
            16.79,
            21.25,
            22.74,
            19.29,
            15.21,
            13.28,
            12.44,
            11.67,
            11.78,
            11.72,
            12.26,
            12.46,
            12.84,
            12.18,
            12.39,
            11.55,
            11.36,
            10.97,
            10.81,
            10.57,
            10.6,
            10.76,
            11.03,
            11.38,
            12.52,
            14.49,
            15.82,
            15.42,
            14.68,
            14.97,
            16.78,
            16.89,
            17.51,
            17.03,
            18.37,
            18.73,
            16.75,
            15.46,
            16.64,
            18.65,
            20.32,
            22.15,
            21.91,
            21.01,
            19.35,
            18.68,
            19.99,
            20.35,
            20.29,
            18.27,
            17.31,
            18.1,
            16.72,
            15.56,
            12.91,
            11.79,
            11.24,
            10.88,
            10.76,
            11.2,
            11.45,
            12.28,
            12.46,
            14.67,
            15.3,
            15.02,
            10.13
          ]
        ]
      }
    },
    "004": {
      "reaction": {
        "0": {
          "x4_code": "(92-U-233(N,EL),,WID/RED,,2G/AV)",
          "0": {
            "code": [
              "92-U-233",
              [
                "N,EL"
              ],
              ",,WID/RED,,2G/AV"
            ],
            "type": null,
            "target": "92-U-233",
            "process": "N,EL",
            "sf49": ",,WID/RED,,2G/AV",
            "sf4": null,
            "sf5": null,
            "sf6": "WID/RED",
            "sf7": null,
            "sf8": "2G/AV",
            "sf9": null
          },
          "type": null,
          "free_text": ""
        }
      },
      "extra_information": {
        "status": {
          "0": [
            {
              "x4_code": "(TABLE)",
              "free_txt": [
                " .Taken from Proceedings of the Symposium on",
                " Physics and Chemistry in Salzburg,IAEA,vol.1,1965."
              ]
            }
          ]
        }
      },
      "common": null,
      "data": {
        "heads": [
          "EN-MIN",
          "EN-MAX",
          "DATA"
        ],
        "units": [
          "EV",
          "EV",
          "EV"
        ],
        "data": [
          [
            1.823
          ],
          [
            29.54
          ],
          [
            0.169
          ]
        ]
      }
    },
    "005": {
      "reaction": {
        "0": {
          "x4_code": "(92-U-233(N,F),,WID,,AV)",
          "0": {
            "code": [
              "92-U-233",
              [
                "N,F"
              ],
              ",,WID,,AV"
            ],
            "type": null,
            "target": "92-U-233",
            "process": "N,F",
            "sf49": ",,WID,,AV",
            "sf4": null,
            "sf5": null,
            "sf6": "WID",
            "sf7": null,
            "sf8": "AV",
            "sf9": null
          },
          "type": null,
          "free_text": ""
        }
      },
      "extra_information": {
        "status": {
          "0": [
            {
              "x4_code": "(TABLE)",
              "free_txt": [
                " .Taken from Proceedings of the Symposium on",
                " Physics and Chemistry in Salzburg,IAEA,vol.1,1965."
              ]
            }
          ]
        }
      },
      "common": null,
      "data": {
        "heads": [
          "EN-MIN",
          "EN-MAX",
          "DATA"
        ],
        "units": [
          "EV",
          "EV",
          "EV"
        ],
        "data": [
          [
            1.823
          ],
          [
            29.54
          ],
          [
            0.389
          ]
        ]
      }
    },
    "006": {
      "reaction": {
        "1": {
          "x4_code": "(92-U-233(N,0),,EN)",
          "0": {
            "code": [
              "92-U-233",
              [
                "N,0"
              ],
              ",,EN"
            ],
            "type": null,
            "target": "92-U-233",
            "process": "N,0",
            "sf49": ",,EN",
            "sf4": null,
            "sf5": null,
            "sf6": "EN",
            "sf7": null,
            "sf8": null,
            "sf9": null
          },
          "type": null,
          "free_text": ""
        },
        "2": {
          "x4_code": "(92-U-233(N,TOT),,WID)",
          "0": {
            "code": [
              "92-U-233",
              [
                "N,TOT"
              ],
              ",,WID"
            ],
            "type": null,
            "target": "92-U-233",
            "process": "N,TOT",
            "sf49": ",,WID",
            "sf4": null,
            "sf5": null,
            "sf6": "WID",
            "sf7": null,
            "sf8": null,
            "sf9": null
          },
          "type": null,
          "free_text": ""
        },
        "3": {
          "x4_code": "(92-U-233(N,F),,WID)",
          "0": {
            "code": [
              "92-U-233",
              [
                "N,F"
              ],
              ",,WID"
            ],
            "type": null,
            "target": "92-U-233",
            "process": "N,F",
            "sf49": ",,WID",
            "sf4": null,
            "sf5": null,
            "sf6": "WID",
            "sf7": null,
            "sf8": null,
            "sf9": null
          },
          "type": null,
          "free_text": ""
        },
        "4": {
          "x4_code": "(92-U-233(N,EL),,WID)",
          "0": {
            "code": [
              "92-U-233",
              [
                "N,EL"
              ],
              ",,WID"
            ],
            "type": null,
            "target": "92-U-233",
            "process": "N,EL",
            "sf49": ",,WID",
            "sf4": null,
            "sf5": null,
            "sf6": "WID",
            "sf7": null,
            "sf8": null,
            "sf9": null
          },
          "type": null,
          "free_text": ""
        }
      },
      "extra_information": {
        "status": {
          "0": [
            {
              "x4_code": "(TABLE)",
              "free_txt": [
                " .Taken from Proceedings of the Symposium on",
                " Physics and Chemistry in Salzburg,IAEA,vol.1,1965."
              ]
            }
          ]
        }
      },
      "common": null,
      "data": {
        "heads": [
          "DATA      1",
          "DATA      2",
          "DATA      3",
          "DATA      4"
        ],
        "units": [
          "EV",
          "MILLI-EV",
          "MILLI-EV",
          "MILLI-EV"
        ],
        "data": [
          [
            1.823,
            2.191,
            2.321,
            3.418,
            3.678,
            4.819,
            5.995,
            6.723,
            6.912,
            7.66,
            8.71,
            9.48,
            10.54,
            11.41,
            12.29,
            12.98,
            13.94,
            15.56,
            15.69,
            16.48,
            16.81,
            18.27,
            18.72,
            19.26,
            20.92,
            22.0,
            22.23,
            22.69,
            23.17,
            24.15,
            24.63,
            25.68,
            26.31,
            27.0,
            28.14,
            28.64,
            29.54
          ],
          [
            309.0,
            160.0,
            70.9,
            312.0,
            182.0,
            857.0,
            421.0,
            750.0,
            146.0,
            322.0,
            399.0,
            559.0,
            347.0,
            594.0,
            1102.0,
            318.0,
            429.0,
            64.0,
            230.0,
            672.0,
            182.0,
            158.0,
            155.0,
            350.0,
            481.0,
            482.0,
            205.0,
            445.0,
            1910.0,
            332.0,
            574.0,
            410.0,
            812.0,
            542.0,
            503.0,
            1390.0,
            580.0
          ],
          [
            264.0,
            115.0,
            66.4,
            267.0,
            137.0,
            809.0,
            376.0,
            705.0,
            101.0,
            277.0,
            354.0,
            514.0,
            302.0,
            549.0,
            1057.0,
            273.0,
            384.0,
            19.0,
            185.0,
            627.0,
            137.0,
            113.0,
            110.0,
            305.0,
            436.0,
            437.0,
            160.0,
            400.0,
            1865.0,
            287.0,
            529.0,
            365.0,
            767.0,
            497.0,
            458.0,
            1345.0,
            535.0
          ],
          [
            0.484,
            0.072,
            0.141,
            0.047,
            0.11,
            0.298,
            0.156,
            0.398,
            0.775,
            0.049,
            0.076,
            0.204,
            1.625,
            0.312,
            0.284,
            1.33,
            0.456,
            0.641,
            0.5,
            1.3,
            0.492,
            0.25,
            0.153,
            1.705,
            0.872,
            0.312,
            0.791,
            3.023,
            1.812,
            0.364,
            0.293,
            0.896,
            0.479,
            0.571,
            0.017,
            0.996,
            1.56
          ]
        ]
      }
    },
    "007": {
      "reaction": {
        "0": {
          "x4_code": "(92-U-233(N,0),,D)",
          "0": {
            "code": [
              "92-U-233",
              [
                "N,0"
              ],
              ",,D"
            ],
            "type": null,
            "target": "92-U-233",
            "process": "N,0",
            "sf49": ",,D",
            "sf4": null,
            "sf5": null,
            "sf6": "D",
            "sf7": null,
            "sf8": null,
            "sf9": null
          },
          "type": null,
          "free_text": ""
        }
      },
      "extra_information": {
        "status": {
          "0": [
            {
              "x4_code": "(TABLE)",
              "free_txt": [
                " .Taken from Proceedings of the Symposium on",
                " Physics and Chemistry in Salzburg,IAEA,vol.1,1965."
              ]
            }
          ]
        }
      },
      "common": null,
      "data": {
        "heads": [
          "EN-RES-MIN",
          "EN-RES-MAX",
          "DATA"
        ],
        "units": [
          "EV",
          "EV",
          "EV"
        ],
        "data": [
          [
            1.823
          ],
          [
            29.54
          ],
          [
            0.79
          ]
        ]
      }
    }
  }
}