{
  "entry": "20826",
  "last_updated": "2006-07-20",
  "number_of_revisions": "3",
  "histories": [
    {
      "x4_code": "(781025C)",
      "free_txt": [
        " PDJ"
      ]
    },
    {
      "x4_code": "(790425E)",
      "free_txt": []
    },
    {
      "x4_code": "(840507A)",
      "free_txt": [
        " A.L. EPICADMIUM RESONANCE INTEGRAL INCLUDED",
        "          IN SUBENT 005."
      ]
    },
    {
      "x4_code": "(840710E)",
      "free_txt": []
    }
  ],
  "bib_record": {
    "title": "-THE NEUTRON INDUCED FISSION CROSS SECTION OF 235-U IN THE ENERGY REGION FROM 0.008EV TO 30KEV-.",
    "authors": [
      {
        "name": "C.Wagemans"
      },
      {
        "name": "A.J.Deruytter"
      }
    ],
    "institutes": [
      {
        "x4_code": "(2ZZZGEL)",
        "free_txt": [
          " DERUYTTER. EXPT AT CBNM."
        ]
      },
      {
        "x4_code": "(2BLGMOL)",
        "free_txt": [
          " WAGEMANS. SCK-CEN,B-2400"
        ]
      }
    ],
    "references": {
      "0": [
        {
          "x4_code": "(J,ANE,3,437,7612)",
          "free_txt": [],
          "publication_year": "1976"
        },
        {
          "x4_code": "(P,EANDC(E)-150U,7205)",
          "free_txt": [
            " EXPT STARTED."
          ],
          "publication_year": "1972"
        },
        {
          "x4_code": "(P,EANDC(E)-157U,7305)",
          "free_txt": [
            " PERFORMED."
          ],
          "publication_year": "1973"
        },
        {
          "x4_code": "(P,EANDC(E)-161U,7408)",
          "free_txt": [
            " UNDER ANALYSIS"
          ],
          "publication_year": "1974"
        },
        {
          "x4_code": "(P,INDC(SEC)-43,7412)",
          "free_txt": [
            " ABST.TO BE COMPLETED."
          ],
          "publication_year": "1974"
        },
        {
          "x4_code": "(P,NEANDC(E)-162,3,7502)",
          "free_txt": [
            " ABST."
          ],
          "publication_year": "1975"
        },
        {
          "x4_code": "(P,INDC(SEC)-51,7512)",
          "free_txt": [
            " ABST."
          ],
          "publication_year": "1975"
        },
        {
          "x4_code": "(P,NEANDC(E)-172,3,7602)",
          "free_txt": [
            " SHORT REPT."
          ],
          "publication_year": "1976"
        },
        {
          "x4_code": "(W,WAGEMANS,7701)",
          "free_txt": [
            " NUMERICAL DATA ON TAPE."
          ],
          "publication_year": "1977"
        }
      ]
    },
    "facilities": {
      "0": [
        {
          "x4_code": "(LINAC)",
          "free_txt": [
            " 30 METER FLIGHT STATION OF THE CBNM LINAC"
          ]
        }
      ]
    }
  },
  "data_tables": {
    "001": {
      "extra_information": {
        "correction": {
          "0": [
            {
              "x4_code": null,
              "free_txt": [
                ".BACKGROUND CORRECTION SUBTRACTED USING BLACK",
                " RESONANCE TECHNIQUE USING TA,W,MN,MO,CO AND BI.",
                " BACKGROUND CONTRIBUTION VARIED FROM ONE TO SEVERAL",
                " PERCENT."
              ]
            }
          ]
        },
        "comment": {
          "0": [
            {
              "x4_code": null,
              "free_txt": [
                ".THREE PARTIAL MEASUREMENTS FOR ENERGY RANGES",
                " 5-200EV,0.2-1KEV AND 1-30KEV ARE CROSS NORMALISED.",
                " DATA WERE ALSO NORMALISED TO THE MEASUREMENT OF",
                " DERUYTTER AT LOW ENERGY, SEE JNE 27 645"
              ]
            }
          ]
        },
        "detector": {
          "0": [
            {
              "x4_code": "(SOLST)",
              "free_txt": [
                " 2000MM*2 GOLD-SILICON SURFACE BARRIER",
                " DETECTORS AT 68CM FROM SAMPLE."
              ]
            }
          ]
        },
        "err-analys": {
          "0": [
            {
              "x4_code": null,
              "free_txt": [
                ".ERROR ANALYSIS IS ONLY EXPLICITLY GIVEN FOR",
                " ENERGY INTEGRATED VALUES. FLUX RATIO ERROR ABOUT",
                " 3 PERCENT, FOR LI NORMALISED DATA PROBABLY NOT",
                " LARGER THAN 2 PERCENT. NORMALIZATION CONTRIBUTES",
                " A SYSTEMATIC ERROR OF ONE PERCENT, AND BACKGROUND",
                " UNCERTAINTY CAN REPRESENT UP TO 5 PERCENT IN VALLEYS.",
                " STATISTICAL ACCURACY IS A FEW PARTS PER THOUSAND."
              ]
            }
          ]
        },
        "facility": {
          "0": [
            {
              "x4_code": "(LINAC)",
              "free_txt": [
                " 30 METER FLIGHT STATION OF THE CBNM LINAC"
              ]
            }
          ]
        },
        "inc-source": {
          "0": [
            {
              "x4_code": "(EVAP )",
              "free_txt": [
                " FAST NEUTRONS FROM ELECTRON BEAM",
                " BOMBARDMENT OF THE MERCURY COOLED URANIUM TARGET,",
                " SLOWED BY TWO 4-CM POLYETHYLENE SLABS PLACED ABOVE",
                " AND UNDER TARGET"
              ]
            }
          ]
        },
        "method": {
          "0": [
            {
              "x4_code": "(TOF  )",
              "free_txt": [
                " TIME OF FLIGHT AT 30METRE STATION. CHANNEL",
                " WIDTH 40NS"
              ]
            }
          ]
        },
        "monitor": {
          "0": [
            {
              "x4_code": "(5-B-10(N,A)3-LI-7,,SIG)",
              "free_txt": [
                " ONLY ALPHA-0 AND ALPHA-1",
                " DETECTED. ELEMENTAL B-LAYER OF 220 MICRO G/CM*2,",
                " ENRICHMENT 93+-1 PERCENT."
              ]
            },
            {
              "x4_code": "(3-LI-6(N,T)2-HE-4,,SIG)",
              "free_txt": [
                " BOTH ALPHAS AND TRITONS",
                " DETECTED. EVAPOURATED LIF OF 176 MICRO G/CM*2,",
                " OF 99.32+-0.10 ATOM PERCENT LI-6,AND 0.68+-0.10",
                " ATOM PERCENT OF LI-7."
              ]
            }
          ]
        },
        "sample": {
          "0": [
            {
              "x4_code": null,
              "free_txt": [
                ".A LAYER OF U-235 MOUNTED BACK TO BACK WITH A LAYER",
                " OF B-10 IN A LARGE DETECTION CHAMBER",
                " URANIUM LAYER PREPARED BY ELECTROSPRAYING OF",
                " URANYLACETATE ON 0.1 MM AL. ISOTOPIC COMPOSITION",
                " WAS 234-U 0.168+-0.002 ATOM PERCENT",
                "     235-U 99.505+-0.004 ATOM PERCENT",
                "     236-U  0.026+-0.001 ATOM PERCENT",
                "     238-U  0.301+-0.002 ATOM PERCENT"
              ]
            }
          ]
        },
        "status": {
          "0": [
            {
              "x4_code": null,
              "free_txt": [
                ".CROSS SECTION DATA FROM AUTHORS MAGNETIC TAPE,",
                " OTHER ENERGY INTEGRATED VALUES FROM TABLES IN",
                " ANE 3 437."
              ]
            }
          ]
        }
      }
    },
    "002": {
      "reaction": {
        "0": {
          "x4_code": "(92-U-235(N,F),,SIG,,AV)",
          "0": {
            "code": [
              "92-U-235",
              [
                "N,F"
              ],
              ",,SIG,,AV"
            ],
            "type": null,
            "target": "92-U-235",
            "process": "N,F",
            "sf49": ",,SIG,,AV",
            "sf4": null,
            "sf5": null,
            "sf6": "SIG",
            "sf7": null,
            "sf8": "AV",
            "sf9": null
          },
          "type": null,
          "free_text": ""
        }
      },
      "extra_information": {
        "status": {
          "0": [
            {
              "x4_code": "(DEP  )",
              "free_txt": [
                " ENERGY AVERAGED FROM DIFFERENTIAL DATA."
              ]
            }
          ]
        }
      },
      "common": null,
      "data": {
        "heads": [
          "EN-MIN",
          "EN-MAX",
          "DATA"
        ],
        "units": [
          "KEV",
          "KEV",
          "B"
        ],
        "data": [
          [
            0.001,
            0.01,
            0.02,
            0.03,
            0.04,
            0.05,
            0.06,
            0.1,
            0.2,
            0.3,
            1.0,
            2.0,
            3.0,
            4.0,
            5.0,
            6.0,
            7.0,
            8.0,
            9.0,
            10.0,
            20.0
          ],
          [
            0.01,
            0.02,
            0.03,
            0.04,
            0.05,
            0.06,
            0.1,
            0.2,
            0.3,
            1.0,
            2.0,
            3.0,
            4.0,
            5.0,
            6.0,
            7.0,
            8.0,
            9.0,
            10.0,
            20.0,
            30.0
          ],
          [
            40.64,
            52.62,
            38.08,
            59.02,
            34.57,
            64.49,
            25.4,
            21.25,
            20.91,
            21.53,
            7.47,
            5.54,
            4.96,
            4.46,
            4.13,
            3.41,
            3.4,
            3.13,
            3.21,
            2.64,
            2.22
          ]
        ]
      }
    },
    "003": {
      "reaction": {
        "0": {
          "x4_code": "(92-U-235(N,F),,INT)",
          "0": {
            "code": [
              "92-U-235",
              [
                "N,F"
              ],
              ",,INT"
            ],
            "type": null,
            "target": "92-U-235",
            "process": "N,F",
            "sf49": ",,INT",
            "sf4": null,
            "sf5": null,
            "sf6": "INT",
            "sf7": null,
            "sf8": null,
            "sf9": null
          },
          "type": null,
          "free_text": "        FISSION INTEGRAL"
        }
      },
      "extra_information": {
        "status": {
          "0": [
            {
              "x4_code": "(DEP,20826004)",
              "free_txt": [
                " DERIVED FROM DIFFERENTIAL DATA."
              ]
            }
          ]
        }
      },
      "common": null,
      "data": {
        "heads": [
          "EN-MIN",
          "EN-MAX",
          "DATA",
          "DATA-ERR"
        ],
        "units": [
          "EV",
          "EV",
          "B*EV",
          "B*EV"
        ],
        "data": [
          [
            1.0
          ],
          [
            1000.0
          ],
          [
            16160.0
          ],
          [
            500.0
          ]
        ]
      }
    },
    "004": {
      "reaction": {
        "0": {
          "x4_code": "(92-U-235(N,F),,SIG)",
          "0": {
            "code": [
              "92-U-235",
              [
                "N,F"
              ],
              ",,SIG"
            ],
            "type": null,
            "target": "92-U-235",
            "process": "N,F",
            "sf49": ",,SIG",
            "sf4": null,
            "sf5": null,
            "sf6": "SIG",
            "sf7": null,
            "sf8": null,
            "sf9": null
          },
          "type": null,
          "free_text": ""
        }
      },
      "extra_information": {
        "status": {
          "0": [
            {
              "x4_code": null,
              "free_txt": [
                ".FROM MAGNETIC TAPE."
              ]
            }
          ]
        }
      },
      "common": null,
      "data": {
        "heads": [
          "EN",
          "DATA"
        ],
        "units": [
          "EV",
          "B"
        ],
        "data": [
          [
            11.016,
            11.048,
            11.08,
            11.113,
            11.145,
            11.178,
            11.21,
            11.243,
            11.276,
            11.309,
            11.342,
            11.376,
            11.409,
            11.443,
            11.477,
            11.511,
            11.545,
            11.579,
            11.614,
            11.648,
            11.683,
            11.718,
            11.753,
            11.788,
            11.824,
            11.859,
            11.895,
            11.931,
            11.967,
            12.003,
            12.039,
            12.076,
            12.113,
            12.15,
            12.186,
            12.224,
            12.261,
            12.299,
            12.336,
            12.374,
            12.412,
            12.451,
            12.489,
            12.528,
            12.566,
            12.605,
            12.644,
            12.684,
            12.723,
            12.763,
            12.803,
            12.843,
            12.883,
            12.923,
            12.964,
            13.005,
            13.046,
            13.087,
            13.128,
            13.17,
            13.212,
            13.254,
            13.296,
            13.338,
            13.381,
            13.424,
            13.467,
            13.51,
            13.553,
            13.597,
            13.641,
            13.685,
            13.729,
            13.774,
            13.818,
            13.863,
            13.908,
            13.954,
            13.999,
            14.045,
            14.091,
            14.138,
            14.184,
            14.231,
            14.278,
            14.325,
            14.372,
            14.42,
            14.468,
            14.516,
            14.564,
            14.613,
            14.662,
            14.711,
            14.76,
            14.81,
            14.86,
            14.91,
            14.96,
            15.011,
            15.061,
            15.113,
            15.164,
            15.216,
            15.268,
            15.32,
            15.372,
            15.425,
            15.478,
            15.531,
            15.585,
            15.638,
            15.692,
            15.747,
            15.801,
            15.856,
            15.912,
            15.967,
            16.023,
            16.079,
            16.135,
            16.192,
            16.249,
            16.306,
            16.364,
            16.422,
            16.48,
            16.539,
            16.597,
            16.657,
            16.716,
            16.776,
            16.836,
            16.896,
            16.957,
            17.018,
            17.079,
            17.141,
            17.203,
            17.266,
            17.329,
            17.392,
            17.455,
            17.519,
            17.583,
            17.648,
            17.712,
            17.777,
            17.843,
            17.909,
            17.975,
            18.042,
            18.109,
            18.176,
            18.244,
            18.312,
            18.381,
            18.45,
            18.519,
            18.589,
            18.659,
            18.73,
            18.8,
            18.872,
            18.943,
            19.016,
            19.088,
            19.161,
            19.234,
            19.308,
            19.382,
            19.457,
            19.532,
            19.608,
            19.684,
            19.76,
            19.837,
            19.914,
            19.992,
            20.07,
            20.124,
            20.154,
            20.183,
            20.213,
            20.243,
            20.273,
            20.303,
            20.332,
            20.362,
            20.393,
            20.423,
            20.453,
            20.483,
            20.514,
            20.544,
            20.575,
            20.605,
            20.636,
            20.666,
            20.697,
            20.728,
            20.759,
            20.79,
            20.821,
            20.852,
            20.883,
            20.914,
            20.946,
            20.977,
            21.009,
            21.04,
            21.072,
            21.103,
            21.135,
            21.167,
            21.199,
            21.231,
            21.263,
            21.295,
            21.327,
            21.359,
            21.392,
            21.424,
            21.457,
            21.489,
            21.522,
            21.554,
            21.587,
            21.62,
            21.653,
            21.686,
            21.719,
            21.752,
            21.785,
            21.819,
            21.852,
            21.885,
            21.919,
            21.953,
            21.986,
            22.02,
            22.054,
            22.088,
            22.122,
            22.156,
            22.19,
            22.224,
            22.259,
            22.293,
            22.327,
            22.362,
            22.397,
            22.431,
            22.466,
            22.501,
            22.536,
            22.571,
            22.606,
            22.641,
            22.677,
            22.712,
            22.747,
            22.783,
            22.818,
            22.854,
            22.89,
            22.926,
            22.962,
            22.998,
            23.034,
            23.07,
            23.106,
            23.143,
            23.179,
            23.216,
            23.252,
            23.289,
            23.326,
            23.363,
            23.4,
            23.437,
            23.474,
            23.511,
            23.549,
            23.586,
            23.624,
            23.661,
            23.699,
            23.737,
            23.774,
            23.812,
            23.85,
            23.889,
            23.927,
            23.965,
            24.003,
            24.042,
            24.081,
            24.119,
            24.158,
            24.197,
            24.236,
            24.275,
            24.314,
            24.353,
            24.393,
            24.432,
            24.472,
            24.511,
            24.551,
            24.591,
            24.631,
            24.671,
            24.711,
            24.751,
            24.792,
            24.832,
            24.873,
            24.913,
            24.954,
            24.995,
            25.036,
            25.077,
            25.118,
            25.159,
            25.201,
            25.242,
            25.283,
            25.325,
            25.367,
            25.409,
            25.451,
            25.493,
            25.535,
            25.577,
            25.619,
            25.662,
            25.704,
            25.747,
            25.79,
            25.833,
            25.876,
            25.919,
            25.962,
            26.005,
            26.049,
            26.092,
            26.136,
            26.18,
            26.224,
            26.268,
            26.312,
            26.356,
            26.4,
            26.445,
            26.489,
            26.534,
            26.579,
            26.624,
            26.668,
            26.714,
            26.759,
            26.804,
            26.85,
            26.895,
            26.941,
            26.987,
            27.033,
            27.079,
            27.125,
            27.171,
            27.217,
            27.264,
            27.31,
            27.357,
            27.404,
            27.451,
            27.498,
            27.545,
            27.593,
            27.64,
            27.688,
            27.736,
            27.783,
            27.831,
            27.879,
            27.928,
            27.976,
            28.024,
            28.073,
            28.122,
            28.171,
            28.22,
            28.269,
            28.318,
            28.367,
            28.417,
            28.466,
            28.516,
            28.566,
            28.616,
            28.666,
            28.716,
            28.767,
            28.817,
            28.868,
            28.919,
            28.97,
            29.021,
            29.072,
            29.123,
            29.175,
            29.226,
            29.278,
            29.33,
            29.382,
            29.434,
            29.486,
            29.539,
            29.591,
            29.644,
            29.697,
            29.75,
            29.803,
            29.856,
            29.91,
            29.963,
            30.017,
            30.071,
            30.125,
            30.179,
            30.233,
            30.288,
            30.342,
            30.397,
            30.452,
            30.507,
            30.562,
            30.618,
            30.673,
            30.729,
            30.785,
            30.841,
            30.897,
            30.953,
            31.009,
            31.066,
            31.122,
            31.179,
            31.236,
            31.294,
            31.351,
            31.408,
            31.466,
            31.524,
            31.582,
            31.64,
            31.698,
            31.757,
            31.815,
            31.874,
            31.933,
            31.992,
            32.051,
            32.111,
            32.17,
            32.23,
            32.29,
            32.35,
            32.411,
            32.471,
            32.532,
            32.592,
            32.653,
            32.714,
            32.776,
            32.837,
            32.899,
            32.961,
            33.023,
            33.085,
            33.147,
            33.21,
            33.272,
            33.335,
            33.398,
            33.461,
            33.525,
            33.588,
            33.652,
            33.716,
            33.78,
            33.844,
            33.909,
            33.974,
            34.038,
            34.103,
            34.169,
            34.234,
            34.3,
            34.366,
            34.432,
            34.498,
            34.564,
            34.631,
            34.697,
            34.764,
            34.832,
            34.899,
            34.966,
            35.034,
            35.102,
            35.17,
            35.239,
            35.307,
            35.376,
            35.445,
            35.514,
            35.583,
            35.653,
            35.722,
            35.792,
            35.862,
            35.933,
            36.003,
            36.074,
            36.145,
            36.216,
            36.288,
            36.359,
            36.431,
            36.503,
            36.575,
            36.648,
            36.72,
            36.793,
            36.866,
            36.94,
            37.013,
            37.087,
            37.161,
            37.235,
            37.31,
            37.384,
            37.459,
            37.534,
            37.61,
            37.685,
            37.761,
            37.837,
            37.913,
            37.99,
            38.066,
            38.143,
            38.22,
            38.298,
            38.376,
            38.453,
            38.531,
            38.61,
            38.688,
            38.767,
            38.846,
            38.926,
            39.005,
            39.085,
            39.165,
            39.245,
            39.326,
            39.407,
            39.488,
            39.569,
            39.65,
            39.732,
            39.814,
            39.897,
            39.979,
            40.062,
            40.145,
            40.228,
            40.312,
            40.396,
            40.48,
            40.564,
            40.649,
            40.734,
            40.819,
            40.904,
            40.99,
            41.076,
            41.162,
            41.249,
            41.336,
            41.423,
            41.51,
            41.598,
            41.686,
            41.774,
            41.862,
            41.951,
            42.04,
            42.129,
            42.219,
            42.309,
            42.399,
            42.489,
            42.58,
            42.671,
            42.762,
            42.854,
            42.946,
            43.038,
            43.13,
            43.223,
            43.316,
            43.41,
            43.503,
            43.597,
            43.692,
            43.786,
            43.881,
            43.977,
            44.072,
            44.168,
            44.264,
            44.36,
            44.457,
            44.554,
            44.652,
            44.75,
            44.848,
            44.946,
            45.045,
            45.144,
            45.243,
            45.343,
            45.443,
            45.543,
            45.644,
            45.745,
            45.846,
            45.948,
            46.05,
            46.153,
            46.255,
            46.358,
            46.462,
            46.565,
            46.67,
            46.774,
            46.879,
            46.984,
            47.089,
            47.195,
            47.302,
            47.408,
            47.515,
            47.622,
            47.73,
            47.838,
            47.947,
            48.055,
            48.165,
            48.274,
            48.384,
            48.494,
            48.605,
            48.716,
            48.827,
            48.939,
            49.051,
            49.164,
            49.277,
            49.39,
            49.504,
            49.618,
            49.732,
            49.847,
            49.963,
            50.078,
            50.194,
            50.311,
            50.428,
            50.545,
            50.663,
            50.781,
            50.9,
            51.019,
            51.138,
            51.258,
            51.378,
            51.499,
            51.62,
            51.741,
            51.863,
            51.986,
            52.108,
            52.232,
            52.355,
            52.479,
            52.604,
            52.729,
            52.854,
            52.98,
            53.107,
            53.234,
            53.361,
            53.489,
            53.617,
            53.745,
            53.874,
            54.004,
            54.134,
            54.265,
            54.396,
            54.527,
            54.659,
            54.791,
            54.924,
            55.058,
            55.192,
            55.326,
            55.461,
            55.596,
            55.732,
            55.868,
            56.005,
            56.142,
            56.28,
            56.419,
            56.557,
            56.697,
            56.837,
            56.977,
            57.118,
            57.26,
            57.402,
            57.544,
            57.687,
            57.831,
            57.975,
            58.119,
            58.265,
            58.41,
            58.557,
            58.703,
            58.851,
            58.999,
            59.147,
            59.296,
            59.446,
            59.596,
            59.747,
            59.898,
            60.05,
            60.203,
            60.356,
            60.509,
            60.664,
            60.818,
            60.974,
            61.13,
            61.286,
            61.444,
            61.602,
            61.76,
            61.919,
            62.079,
            62.239,
            62.4,
            62.562,
            62.724,
            62.886,
            63.05,
            63.214,
            63.379,
            63.544,
            63.71,
            63.877,
            64.044,
            64.212,
            64.38,
            64.55,
            64.72,
            64.89,
            65.062,
            65.234,
            65.406,
            65.58,
            65.754,
            65.929,
            66.104,
            66.28,
            66.457,
            66.634,
            66.813,
            66.992,
            67.172,
            67.352,
            67.533,
            67.715,
            67.898,
            68.081,
            68.265,
            68.45,
            68.635,
            68.822,
            69.009,
            69.197,
            69.385,
            69.575,
            69.765,
            69.956,
            70.148,
            70.34,
            70.534,
            70.728,
            70.923,
            71.119,
            71.315,
            71.512,
            71.711,
            71.91,
            72.11,
            72.31,
            72.512,
            72.714,
            72.917,
            73.122,
            73.326,
            73.532,
            73.739,
            73.946,
            74.155,
            74.364,
            74.575,
            74.785,
            74.998,
            75.21,
            75.424,
            75.639,
            75.854,
            76.071,
            76.288,
            76.507,
            76.726,
            76.947,
            77.168,
            77.39,
            77.613,
            77.837,
            78.062,
            78.288,
            78.516,
            78.743,
            78.973,
            79.203,
            79.434,
            79.666,
            79.899,
            80.133,
            80.368,
            80.604,
            80.841,
            81.08,
            81.319,
            81.559,
            81.801,
            82.043,
            82.287,
            82.532,
            82.777,
            83.024,
            83.272,
            83.521,
            83.772,
            84.023,
            84.275,
            84.529,
            84.784,
            85.04,
            85.297,
            85.555,
            85.814,
            86.075,
            86.337,
            86.6,
            86.864,
            87.129,
            87.396,
            87.664,
            87.933,
            88.203,
            88.475,
            88.748,
            89.022,
            89.297,
            89.574,
            89.852,
            90.131,
            90.411,
            90.693,
            90.976,
            91.261,
            91.547,
            91.834,
            92.122,
            92.412,
            92.703,
            92.996,
            93.29,
            93.585,
            93.882,
            94.181,
            94.48,
            94.781,
            95.084,
            95.388,
            95.693,
            96.0,
            96.309,
            96.618,
            96.93,
            97.243,
            97.557,
            97.873,
            98.191,
            98.509,
            98.83,
            99.152,
            99.476,
            99.801,
            100.13,
            100.46,
            100.79,
            101.12,
            101.45,
            101.79,
            102.12,
            102.46,
            102.8,
            103.14,
            103.49,
            103.83,
            104.18,
            104.53,
            104.88,
            105.23,
            105.58,
            105.94,
            106.3,
            106.66,
            107.02,
            107.38,
            107.75,
            108.11,
            108.48,
            108.85,
            109.22,
            109.6,
            109.85,
            109.98,
            110.1,
            110.23,
            110.35,
            110.48,
            110.61,
            110.73,
            110.86,
            110.99,
            111.11,
            111.24,
            111.37,
            111.5,
            111.63,
            111.76,
            111.89,
            112.01,
            112.14,
            112.27,
            112.4,
            112.53,
            112.66,
            112.79,
            112.93,
            113.06,
            113.19,
            113.32,
            113.45,
            113.58,
            113.71,
            113.85,
            113.98,
            114.11,
            114.24,
            114.38,
            114.51,
            114.65,
            114.78,
            114.91,
            115.05,
            115.18,
            115.32,
            115.45,
            115.59,
            115.72,
            115.86,
            115.99,
            116.13,
            116.27,
            116.4,
            116.54,
            116.68,
            116.82,
            116.95,
            117.09,
            117.23,
            117.37,
            117.51,
            117.65,
            117.79,
            117.93,
            118.06,
            118.2,
            118.35,
            118.49,
            118.63,
            118.77,
            118.91,
            119.05,
            119.19,
            119.33,
            119.48,
            119.62,
            119.76,
            119.9,
            120.05,
            120.19,
            120.34,
            120.48,
            120.62,
            120.77,
            120.91,
            121.06,
            121.2,
            121.35,
            121.49,
            121.64,
            121.79,
            121.93,
            122.08,
            122.23,
            122.38,
            122.52,
            122.67,
            122.82,
            122.97,
            123.12,
            123.27,
            123.42,
            123.56,
            123.72,
            123.86,
            124.02,
            124.17,
            124.32,
            124.47,
            124.62,
            124.77,
            124.92,
            125.08,
            125.23,
            125.38,
            125.53,
            125.69,
            125.84,
            126.0,
            126.15,
            126.31,
            126.46,
            126.62,
            126.77,
            126.93,
            127.08,
            127.24,
            127.4,
            127.55,
            127.71,
            127.87,
            128.02,
            128.18,
            128.34,
            128.5,
            128.66,
            128.82,
            128.98,
            129.14,
            129.3,
            129.46,
            129.62,
            129.78,
            129.94,
            130.1,
            130.26,
            130.43,
            130.59,
            130.75,
            130.92,
            131.08,
            131.24,
            131.41,
            131.57,
            131.74,
            131.9,
            132.07,
            132.23,
            132.4,
            132.57,
            132.73,
            132.9,
            133.07,
            133.23,
            133.4,
            133.57,
            133.74,
            133.91,
            134.08,
            134.25,
            134.41,
            134.58,
            134.75,
            134.92,
            135.1,
            135.27,
            135.44,
            135.61,
            135.78,
            135.96,
            136.13,
            136.3,
            136.48,
            136.65,
            136.83,
            137.0,
            137.17,
            137.35,
            137.52,
            137.7,
            137.88,
            138.06,
            138.23,
            138.41,
            138.59,
            138.76,
            138.94,
            139.12,
            139.3,
            139.48,
            139.66,
            139.84,
            140.02,
            140.2,
            140.38,
            140.56,
            140.75,
            140.93,
            141.11,
            141.29,
            141.48,
            141.66,
            141.84,
            142.03,
            142.21,
            142.4,
            142.58,
            142.77,
            142.96,
            143.14,
            143.33,
            143.52,
            143.7,
            143.89,
            144.08,
            144.27,
            144.46,
            144.65,
            144.84,
            145.03,
            145.22,
            145.41,
            145.6,
            145.79,
            145.99,
            146.18,
            146.37,
            146.56,
            146.76,
            146.95,
            147.15,
            147.34,
            147.54,
            147.73,
            147.93,
            148.12,
            148.32,
            148.52,
            148.72,
            148.91,
            149.11,
            149.31,
            149.51,
            149.71,
            149.91,
            150.11,
            150.31,
            150.51,
            150.71,
            150.91,
            151.12,
            151.32,
            151.52,
            151.73,
            151.93,
            152.13,
            152.34,
            152.54,
            152.75,
            152.96,
            153.16,
            153.37,
            153.58,
            153.78,
            153.99,
            154.2,
            154.41,
            154.62,
            154.83,
            155.04,
            155.25,
            155.46,
            155.67,
            155.89,
            156.1,
            156.31,
            156.52,
            156.74,
            156.95,
            157.17,
            157.38,
            157.6,
            157.81,
            158.03,
            158.25,
            158.46,
            158.68,
            158.9,
            159.12,
            159.34,
            159.56,
            159.77,
            160.0,
            160.22,
            160.44,
            160.66,
            160.88,
            161.1,
            161.33,
            161.55,
            161.78,
            162.0,
            162.23,
            162.45,
            162.68,
            162.9,
            163.13,
            163.36,
            163.58,
            163.81,
            164.04,
            164.27,
            164.5,
            164.73,
            164.96,
            165.19,
            165.43,
            165.66,
            165.89,
            166.12,
            166.36,
            166.59,
            166.83,
            167.06,
            167.3,
            167.53,
            167.77,
            168.01,
            168.25,
            168.48,
            168.72,
            168.96,
            169.2,
            169.44,
            169.68,
            169.92,
            170.17,
            170.41,
            170.65,
            170.89,
            171.14,
            171.38,
            171.63,
            171.87,
            172.12,
            172.36,
            172.61,
            172.86,
            173.11,
            173.35,
            173.6,
            173.85,
            174.1,
            174.35,
            174.61,
            174.86,
            175.11,
            175.36,
            175.62,
            175.87,
            176.13,
            176.38,
            176.64,
            176.89,
            177.15,
            177.41,
            177.66,
            177.92,
            178.18,
            178.44,
            178.7,
            178.96,
            179.22,
            179.49,
            179.75,
            180.01,
            180.27,
            180.54,
            180.8,
            181.07,
            181.33,
            181.6,
            181.87,
            182.14,
            182.4,
            182.67,
            182.94,
            183.21,
            183.48,
            183.75,
            184.03,
            184.3,
            184.57,
            184.84,
            185.12,
            185.4,
            185.67,
            185.95,
            186.22,
            186.5,
            186.78,
            187.06,
            187.34,
            187.62,
            187.9,
            188.18,
            188.46,
            188.74,
            189.02,
            189.31,
            189.59,
            189.88,
            190.16,
            190.45,
            190.74,
            191.02,
            191.31,
            191.6,
            191.89,
            192.18,
            192.47,
            192.76,
            193.06,
            193.35,
            193.64,
            193.93,
            194.23,
            194.52,
            194.82,
            195.12,
            195.42,
            195.71,
            196.01,
            196.31,
            196.61,
            196.91,
            197.22,
            197.52,
            197.82,
            198.12,
            198.43,
            198.73,
            199.04,
            199.35,
            199.65,
            199.96,
            200.13,
            200.54,
            200.95,
            201.37,
            201.78,
            202.2,
            202.62,
            203.04,
            203.46,
            203.88,
            204.31,
            204.73,
            205.16,
            205.59,
            206.02,
            206.45,
            206.88,
            207.31,
            207.75,
            208.18,
            208.62,
            209.06,
            209.5,
            209.94,
            210.38,
            210.83,
            211.16,
            211.39,
            211.61,
            211.83,
            212.06,
            212.28,
            212.51,
            212.73,
            212.96,
            213.18,
            213.41,
            213.64,
            213.86,
            214.09,
            214.32,
            214.55,
            214.78,
            215.0,
            215.23,
            215.46,
            215.69,
            215.92,
            216.16,
            216.39,
            216.62,
            216.85,
            217.08,
            217.32,
            217.55,
            217.78,
            218.01,
            218.25,
            218.48,
            218.72,
            218.95,
            219.19,
            219.42,
            219.66,
            219.9,
            220.14,
            220.37,
            220.61,
            220.85,
            221.09,
            221.33,
            221.57,
            221.81,
            222.05,
            222.29,
            222.53,
            222.77,
            223.01,
            223.25,
            223.5,
            223.74,
            223.98,
            224.23,
            224.47,
            224.72,
            224.96,
            225.21,
            225.45,
            225.7,
            225.95,
            226.19,
            226.44,
            226.69,
            226.94,
            227.18,
            227.43,
            227.68,
            227.93,
            228.18,
            228.43,
            228.69,
            228.94,
            229.19,
            229.44,
            229.69,
            229.95,
            230.2,
            230.46,
            230.71,
            230.97,
            231.22,
            231.48,
            231.73,
            231.99,
            232.25,
            232.5,
            232.76,
            233.02,
            233.28,
            233.54,
            233.8,
            234.06,
            234.32,
            234.58,
            234.84,
            235.1,
            235.36,
            235.63,
            235.89,
            236.15,
            236.42,
            236.68,
            236.95,
            237.21,
            237.48,
            237.74,
            238.01,
            238.28,
            238.55,
            238.81,
            239.08,
            239.35,
            239.62,
            239.89,
            240.16,
            240.43,
            240.7,
            240.97,
            241.25,
            241.52,
            241.79,
            242.07,
            242.34,
            242.61,
            242.89,
            243.16,
            243.44,
            243.72,
            243.99,
            244.27,
            244.55,
            244.83,
            245.1,
            245.38,
            245.66,
            245.94,
            246.22,
            246.5,
            246.79,
            247.07,
            247.35,
            247.63,
            247.92,
            248.2,
            248.49,
            248.77,
            249.06,
            249.34,
            249.63,
            249.92,
            250.2,
            250.49,
            250.78,
            251.07,
            251.36,
            251.65,
            251.94,
            252.23,
            252.52,
            252.81,
            253.1,
            253.4,
            253.69,
            253.99,
            254.28,
            254.57,
            254.87,
            255.17,
            255.46,
            255.76,
            256.06,
            256.35,
            256.65,
            256.95,
            257.25,
            257.55,
            257.85,
            258.15,
            258.46,
            258.76,
            259.06,
            259.36,
            259.67,
            259.97,
            260.28,
            260.58,
            260.89,
            261.19,
            261.5,
            261.81,
            262.12,
            262.43,
            262.74,
            263.05,
            263.36,
            263.67,
            263.98,
            264.29,
            264.6,
            264.92,
            265.23,
            265.54,
            265.86,
            266.17,
            266.49,
            266.81,
            267.12,
            267.44,
            267.76,
            268.08,
            268.4,
            268.72,
            269.04,
            269.36,
            269.68,
            270.0,
            270.33,
            270.65,
            270.97,
            271.3,
            271.62,
            271.95,
            272.27,
            272.6,
            272.93,
            273.26,
            273.59,
            273.92,
            274.24,
            274.58,
            274.91,
            275.24,
            275.57,
            275.9,
            276.24,
            276.57,
            276.9,
            277.24,
            277.58,
            277.91,
            278.25,
            278.59,
            278.92,
            279.26,
            279.6,
            279.94,
            280.28,
            280.63,
            280.97,
            281.31,
            281.65,
            282.0,
            282.34,
            282.69,
            283.03,
            283.38,
            283.73,
            284.07,
            284.42,
            284.77,
            285.12,
            285.47,
            285.82,
            286.17,
            286.53,
            286.88,
            287.23,
            287.59,
            287.94,
            288.3,
            288.65,
            289.01,
            289.37,
            289.72,
            290.08,
            290.44,
            290.8,
            291.16,
            291.53,
            291.89,
            292.25,
            292.61,
            292.98,
            293.34,
            293.71,
            294.08,
            294.44,
            294.81,
            295.18,
            295.55,
            295.92,
            296.29,
            296.66,
            297.03,
            297.4,
            297.77,
            298.15,
            298.52,
            298.9,
            299.27,
            299.65,
            300.03,
            300.41,
            300.78,
            301.16,
            301.54,
            301.93,
            302.31,
            302.69,
            303.07,
            303.46,
            303.84,
            304.23,
            304.61,
            305.0,
            305.39,
            305.78,
            306.16,
            306.55,
            306.94,
            307.34,
            307.73,
            308.12,
            308.51,
            308.91,
            309.3,
            309.7,
            310.1,
            310.49,
            310.89,
            311.29,
            311.69,
            312.09,
            312.49,
            312.89,
            313.29,
            313.7,
            314.1,
            314.51,
            314.91,
            315.32,
            315.73,
            316.13,
            316.54,
            316.95,
            317.37,
            317.78,
            318.19,
            318.6,
            319.01,
            319.43,
            319.85,
            320.26,
            320.68,
            321.1,
            321.51,
            321.93,
            322.35,
            322.78,
            323.2,
            323.62,
            324.04,
            324.47,
            324.89,
            325.32,
            325.75,
            326.17,
            326.6,
            327.03,
            327.46,
            327.89,
            328.33,
            328.76,
            329.19,
            329.63,
            330.06,
            330.5,
            330.94,
            331.37,
            331.81,
            332.25,
            332.69,
            333.13,
            333.58,
            334.02,
            334.46,
            334.91,
            335.35,
            335.8,
            336.25,
            336.7,
            337.15,
            337.6,
            338.05,
            338.5,
            338.95,
            339.41,
            339.86,
            340.32,
            340.78,
            341.23,
            341.69,
            342.15,
            342.61,
            343.07,
            343.54,
            344.0,
            344.46,
            344.93,
            345.39,
            345.86,
            346.33,
            346.8,
            347.27,
            347.74,
            348.21,
            348.68,
            349.16,
            349.63,
            350.11,
            350.58,
            351.06,
            351.54,
            352.02,
            352.5,
            352.98,
            353.47,
            353.95,
            354.43,
            354.92,
            355.4,
            355.89,
            356.38,
            356.87,
            357.36,
            357.85,
            358.35,
            358.84,
            359.33,
            359.83,
            360.33,
            360.82,
            361.32,
            361.82,
            362.32,
            362.82,
            363.33,
            363.83,
            364.33,
            364.84,
            365.35,
            365.86,
            366.37,
            366.88,
            367.39,
            367.9,
            368.41,
            368.93,
            369.44,
            369.96,
            370.48,
            371.0,
            371.52,
            372.04,
            372.56,
            373.08,
            373.61,
            374.13,
            374.66,
            375.19,
            375.72,
            376.24,
            376.78,
            377.31,
            377.84,
            378.38,
            378.91,
            379.45,
            379.99,
            380.53,
            381.06,
            381.61,
            382.15,
            382.69,
            383.24,
            383.78,
            384.33,
            384.88,
            385.43,
            385.98,
            386.53,
            387.08,
            387.64,
            388.19,
            388.75,
            389.31,
            389.87,
            390.42,
            390.99,
            391.55,
            392.11,
            392.68,
            393.24,
            393.81,
            394.38,
            394.95,
            395.52,
            396.09,
            396.67,
            397.24,
            397.82,
            398.4,
            398.97,
            399.55,
            400.13,
            400.72,
            401.3,
            401.89,
            402.47,
            403.06,
            403.65,
            404.24,
            404.83,
            405.42,
            406.02,
            406.61,
            407.21,
            407.81,
            408.41,
            409.01,
            409.61,
            410.21,
            410.82,
            411.42,
            412.03,
            412.64,
            413.25,
            413.86,
            414.47,
            415.08,
            415.7,
            416.32,
            416.94,
            417.56,
            418.18,
            418.8,
            419.42,
            420.05,
            420.67,
            421.3,
            421.93,
            422.56,
            423.19,
            423.83,
            424.46,
            425.1,
            425.74,
            426.38,
            427.01,
            427.66,
            428.3,
            428.94,
            429.59,
            430.24,
            430.89,
            431.54,
            432.19,
            432.85,
            433.5,
            434.16,
            434.82,
            435.48,
            436.14,
            436.8,
            437.47,
            438.13,
            438.8,
            439.47,
            440.14,
            440.81,
            441.48,
            442.16,
            442.83,
            443.51,
            444.19,
            444.87,
            445.56,
            446.24,
            446.93,
            447.61,
            448.3,
            448.99,
            449.69,
            450.38,
            451.08,
            451.77,
            452.47,
            453.17,
            453.87,
            454.58,
            455.28,
            455.99,
            456.7,
            457.41,
            458.12,
            458.83,
            459.55,
            460.26,
            460.98,
            461.7,
            462.43,
            463.15,
            463.88,
            464.6,
            465.33,
            466.06,
            466.79,
            467.53,
            468.26,
            469.0,
            469.74,
            470.48,
            471.22,
            471.97,
            472.71,
            473.46,
            474.21,
            474.96,
            475.72,
            476.47,
            477.23,
            477.99,
            478.75,
            479.51,
            480.27,
            481.04,
            481.81,
            482.58,
            483.35,
            484.12,
            484.9,
            485.67,
            486.45,
            487.23,
            488.01,
            488.8,
            489.59,
            490.38,
            491.17,
            491.96,
            492.75,
            493.55,
            494.35,
            495.14,
            495.95,
            496.75,
            497.56,
            498.36,
            499.17,
            499.98,
            500.8,
            501.61,
            502.43,
            503.25,
            504.07,
            504.9,
            505.72,
            506.55,
            507.38,
            508.21,
            509.04,
            509.88,
            510.72,
            511.56,
            512.4,
            513.24,
            514.09,
            514.94,
            515.79,
            516.64,
            517.5,
            518.35,
            519.21,
            520.07,
            520.93,
            521.8,
            522.67,
            523.54,
            524.41,
            525.28,
            526.16,
            527.04,
            527.92,
            528.8,
            529.69,
            530.57,
            531.46,
            532.35,
            533.25,
            534.14,
            535.04,
            535.94,
            536.85,
            537.75,
            538.66,
            539.57,
            540.48,
            541.39,
            542.31,
            543.23,
            544.15,
            545.08,
            546.0,
            546.93,
            547.86,
            548.79,
            549.73,
            550.67,
            551.61,
            552.55,
            553.5,
            554.44,
            555.39,
            556.35,
            557.3,
            558.26,
            559.22,
            560.18,
            561.15,
            562.11,
            563.08,
            564.06,
            565.03,
            566.01,
            566.99,
            567.97,
            568.96,
            569.94,
            570.93,
            571.93,
            572.92,
            573.92,
            574.92,
            575.93,
            576.93,
            577.94,
            578.95,
            579.96,
            580.98,
            582.0,
            583.02,
            584.05,
            585.07,
            586.1,
            587.14,
            588.17,
            589.21,
            590.25,
            591.29,
            592.34,
            593.39,
            594.44,
            595.5,
            596.56,
            597.62,
            598.68,
            599.48,
            600.01,
            600.54,
            601.08,
            601.62,
            602.15,
            602.69,
            603.23,
            603.77,
            604.31,
            604.85,
            605.39,
            605.93,
            606.47,
            607.01,
            607.56,
            608.1,
            608.65,
            609.19,
            609.74,
            610.29,
            610.84,
            611.39,
            611.94,
            612.49,
            613.04,
            613.59,
            614.14,
            614.7,
            615.25,
            615.81,
            616.36,
            616.92,
            617.47,
            618.03,
            618.59,
            619.15,
            619.71,
            620.27,
            620.83,
            621.4,
            621.96,
            622.52,
            623.09,
            623.65,
            624.22,
            624.79,
            625.36,
            625.93,
            626.5,
            627.07,
            627.64,
            628.21,
            628.78,
            629.35,
            629.93,
            630.5,
            631.08,
            631.65,
            632.23,
            632.81,
            633.39,
            633.97,
            634.55,
            635.13,
            635.71,
            636.3,
            636.88,
            637.46,
            638.05,
            638.64,
            639.22,
            639.81,
            640.4,
            640.99,
            641.58,
            642.17,
            642.76,
            643.35,
            643.95,
            644.54,
            645.14,
            645.73,
            646.33,
            646.93,
            647.53,
            648.13,
            648.72,
            649.32,
            649.93,
            650.53,
            651.13,
            651.74,
            652.34,
            652.95,
            653.56,
            654.16,
            654.77,
            655.38,
            655.99,
            656.6,
            657.21,
            657.83,
            658.44,
            659.05,
            659.67,
            660.29,
            660.9,
            661.52,
            662.14,
            662.76,
            663.38,
            664.0,
            664.62,
            665.25,
            665.87,
            666.5,
            667.12,
            667.75,
            668.38,
            669.0,
            669.63,
            670.26,
            670.89,
            671.53,
            672.16,
            672.79,
            673.43,
            674.06,
            674.7,
            675.34,
            675.97,
            676.61,
            677.25,
            677.89,
            678.54,
            679.18,
            679.82,
            680.47,
            681.11,
            681.76,
            682.41,
            683.06,
            683.71,
            684.36,
            685.01,
            685.66,
            686.31,
            686.96,
            687.62,
            688.28,
            688.93,
            689.59,
            690.25,
            690.91,
            691.57,
            692.23,
            692.89,
            693.56,
            694.22,
            694.89,
            695.55,
            696.22,
            696.89,
            697.56,
            698.22,
            698.9,
            699.57,
            700.24,
            700.92,
            701.59,
            702.27,
            702.94,
            703.62,
            704.3,
            704.98,
            705.66,
            706.34,
            707.02,
            707.71,
            708.39,
            709.08,
            709.76,
            710.45,
            711.14,
            711.83,
            712.52,
            713.21,
            713.91,
            714.6,
            715.29,
            715.99,
            716.69,
            717.39,
            718.08,
            718.78,
            719.48,
            720.19,
            720.89,
            721.59,
            722.3,
            723.0,
            723.71,
            724.42,
            725.13,
            725.84,
            726.55,
            727.26,
            727.97,
            728.69,
            729.4,
            730.12,
            730.84,
            731.56,
            732.28,
            733.0,
            733.72,
            734.44,
            735.17,
            735.89,
            736.62,
            737.34,
            738.07,
            738.8,
            739.53,
            740.26,
            741.0,
            741.73,
            742.46,
            743.2,
            743.94,
            744.67,
            745.41,
            746.15,
            746.89,
            747.64,
            748.38,
            749.13,
            749.87,
            750.62,
            751.36,
            752.11,
            752.86,
            753.62,
            754.37,
            755.12,
            755.88,
            756.63,
            757.39,
            758.15,
            758.91,
            759.67,
            760.43,
            761.19,
            761.96,
            762.72,
            763.49,
            764.25,
            765.02,
            765.79,
            766.56,
            767.33,
            768.11,
            768.88,
            769.66,
            770.43,
            771.21,
            771.99,
            772.77,
            773.55,
            774.33,
            775.12,
            775.9,
            776.69,
            777.47,
            778.26,
            779.05,
            779.84,
            780.64,
            781.43,
            782.22,
            783.02,
            783.82,
            784.61,
            785.41,
            786.21,
            787.02,
            787.82,
            788.62,
            789.43,
            790.24,
            791.04,
            791.85,
            792.66,
            793.47,
            794.29,
            795.1,
            795.92,
            796.73,
            797.55,
            798.37,
            799.19,
            800.01,
            800.84,
            801.66,
            802.49,
            803.31,
            804.14,
            804.97,
            805.8,
            806.63,
            807.47,
            808.3,
            809.14,
            809.97,
            810.81,
            811.65,
            812.49,
            813.33,
            814.18,
            815.02,
            815.87,
            816.72,
            817.57,
            818.42,
            819.27,
            820.12,
            820.97,
            821.83,
            822.69,
            823.54,
            824.4,
            825.26,
            826.13,
            826.99,
            827.86,
            828.72,
            829.59,
            830.46,
            831.33,
            832.2,
            833.07,
            833.95,
            834.82,
            835.7,
            836.58,
            837.46,
            838.34,
            839.23,
            840.11,
            841.0,
            841.88,
            842.77,
            843.66,
            844.55,
            845.44,
            846.34,
            847.23,
            848.13,
            849.03,
            849.93,
            850.83,
            851.73,
            852.64,
            853.54,
            854.45,
            855.36,
            856.27,
            857.18,
            858.09,
            859.01,
            859.92,
            860.84,
            861.76,
            862.68,
            863.6,
            864.52,
            865.45,
            866.37,
            867.3,
            868.23,
            869.16,
            870.09,
            871.03,
            871.96,
            872.9,
            873.83,
            874.77,
            875.71,
            876.66,
            877.6,
            878.55,
            879.49,
            880.44,
            881.39,
            882.35,
            883.3,
            884.25,
            885.21,
            886.17,
            887.13,
            888.09,
            889.05,
            890.01,
            890.98,
            891.95,
            892.92,
            893.89,
            894.86,
            895.83,
            896.81,
            897.78,
            898.76,
            899.74,
            900.72,
            901.71,
            902.69,
            903.68,
            904.67,
            905.66,
            906.65,
            907.64,
            908.64,
            909.63,
            910.63,
            911.63,
            912.63,
            913.63,
            914.64,
            915.64,
            916.65,
            917.66,
            918.67,
            919.68,
            920.7,
            921.71,
            922.73,
            923.75,
            924.77,
            925.79,
            926.82,
            927.85,
            928.88,
            929.9,
            930.94,
            931.97,
            933.0,
            934.04,
            935.08,
            936.12,
            937.16,
            938.2,
            939.25,
            940.3,
            941.35,
            942.39,
            943.45,
            944.5,
            945.56,
            946.61,
            947.67,
            948.74,
            949.8,
            950.86,
            951.93,
            953.0,
            954.07,
            955.14,
            956.21,
            957.29,
            958.37,
            959.44,
            960.53,
            961.61,
            962.69,
            963.78,
            964.87,
            965.96,
            967.05,
            968.14,
            969.24,
            970.34,
            971.44,
            972.54,
            973.64,
            974.75,
            975.85,
            976.96,
            978.07,
            979.18,
            980.3,
            981.42,
            982.53,
            983.65,
            984.78,
            985.9,
            987.03,
            988.15,
            989.28,
            990.42,
            991.55,
            992.68,
            993.82,
            994.96,
            996.1,
            997.25,
            998.39,
            999.54,
            1000.2,
            1001.3,
            1002.5,
            1003.6,
            1004.8,
            1005.9,
            1007.1,
            1008.3,
            1009.4,
            1010.6,
            1011.8,
            1012.9,
            1014.1,
            1015.3,
            1016.5,
            1017.7,
            1018.8,
            1020.0,
            1021.2,
            1022.4,
            1023.6,
            1024.8,
            1026.0,
            1027.2,
            1028.4,
            1029.6,
            1030.8,
            1032.0,
            1033.2,
            1034.4,
            1035.6,
            1036.8,
            1038.0,
            1039.2,
            1040.4,
            1041.7,
            1042.9,
            1044.1,
            1045.3,
            1046.6,
            1047.8,
            1049.0,
            1050.3,
            1051.5,
            1052.8,
            1054.0,
            1055.2,
            1056.5,
            1057.7,
            1059.0,
            1060.2,
            1061.5,
            1062.8,
            1064.0,
            1065.3,
            1066.5,
            1067.8,
            1069.1,
            1070.3,
            1071.6,
            1072.9,
            1074.2,
            1075.4,
            1076.7,
            1078.0,
            1079.3,
            1080.6,
            1081.9,
            1083.2,
            1084.5,
            1085.8,
            1087.1,
            1088.4,
            1089.7,
            1091.0,
            1092.3,
            1093.6,
            1094.9,
            1096.3,
            1097.6,
            1098.9,
            1100.2,
            1101.6,
            1102.9,
            1104.2,
            1105.6,
            1106.9,
            1108.2,
            1109.6,
            1110.9,
            1112.3,
            1113.6,
            1115.0,
            1116.3,
            1117.7,
            1119.0,
            1120.4,
            1121.8,
            1123.1,
            1124.5,
            1125.9,
            1127.2,
            1128.6,
            1130.0,
            1131.4,
            1132.8,
            1134.1,
            1135.5,
            1136.9,
            1138.3,
            1139.7,
            1141.1,
            1142.5,
            1143.9,
            1145.3,
            1146.7,
            1148.1,
            1149.6,
            1151.0,
            1152.4,
            1153.8,
            1155.3,
            1156.7,
            1158.1,
            1159.6,
            1161.0,
            1162.4,
            1163.9,
            1165.3,
            1166.8,
            1168.2,
            1169.7,
            1171.1,
            1172.6,
            1174.0,
            1175.5,
            1177.0,
            1178.4,
            1179.9,
            1181.4,
            1182.9,
            1184.3,
            1185.8,
            1187.3,
            1188.8,
            1190.3,
            1191.8,
            1193.3,
            1194.8,
            1196.3,
            1197.8,
            1199.3,
            1200.8,
            1202.3,
            1203.8,
            1205.4,
            1206.9,
            1208.4,
            1209.9,
            1211.4,
            1213.0,
            1214.5,
            1216.1,
            1217.6,
            1219.1,
            1220.7,
            1222.3,
            1223.8,
            1225.4,
            1226.9,
            1228.5,
            1230.1,
            1231.6,
            1233.2,
            1234.8,
            1236.4,
            1237.9,
            1239.5,
            1241.1,
            1242.7,
            1244.3,
            1245.9,
            1247.5,
            1249.1,
            1250.7,
            1252.3,
            1253.9,
            1255.5,
            1257.1,
            1258.8,
            1260.4,
            1262.0,
            1263.6,
            1265.3,
            1266.9,
            1268.6,
            1270.2,
            1271.9,
            1273.5,
            1275.2,
            1276.8,
            1278.5,
            1280.1,
            1281.8,
            1283.5,
            1285.1,
            1286.8,
            1288.5,
            1290.2,
            1291.9,
            1293.6,
            1295.3,
            1296.9,
            1298.6,
            1300.4,
            1302.1,
            1303.8,
            1305.5,
            1307.2,
            1308.9,
            1310.6,
            1312.4,
            1314.1,
            1315.8,
            1317.6,
            1319.3,
            1321.0,
            1322.8,
            1324.5,
            1326.3,
            1328.1,
            1329.8,
            1331.6,
            1333.3,
            1335.1,
            1336.9,
            1338.7,
            1340.4,
            1342.2,
            1344.0,
            1345.8,
            1347.6,
            1349.4,
            1351.2,
            1353.0,
            1354.8,
            1356.6,
            1358.5,
            1360.3,
            1362.1,
            1363.9,
            1365.8,
            1367.6,
            1369.4,
            1371.3,
            1373.1,
            1375.0,
            1376.9,
            1378.7,
            1380.6,
            1382.4,
            1384.3,
            1386.2,
            1388.1,
            1389.9,
            1391.8,
            1393.7,
            1395.6,
            1397.5,
            1399.4,
            1401.3,
            1403.2,
            1405.1,
            1407.1,
            1409.0,
            1410.9,
            1412.8,
            1414.8,
            1416.7,
            1418.6,
            1420.6,
            1422.5,
            1424.5,
            1426.4,
            1428.4,
            1430.4,
            1432.3,
            1434.3,
            1436.3,
            1438.3,
            1440.2,
            1442.2,
            1444.2,
            1446.2,
            1448.2,
            1450.2,
            1452.2,
            1454.2,
            1456.3,
            1458.3,
            1460.3,
            1462.3,
            1464.4,
            1466.4,
            1468.4,
            1470.5,
            1472.6,
            1474.6,
            1476.7,
            1478.7,
            1480.8,
            1482.9,
            1484.9,
            1487.0,
            1489.1,
            1491.2,
            1493.3,
            1495.4,
            1497.5,
            1499.6,
            1501.7,
            1503.9,
            1506.0,
            1508.1,
            1510.2,
            1512.4,
            1514.5,
            1516.6,
            1518.8,
            1520.9,
            1523.1,
            1525.3,
            1527.4,
            1529.6,
            1531.8,
            1534.0,
            1536.1,
            1538.3,
            1540.5,
            1542.7,
            1544.9,
            1547.1,
            1549.4,
            1551.6,
            1553.8,
            1556.0,
            1558.3,
            1560.5,
            1562.8,
            1565.0,
            1567.3,
            1569.5,
            1571.8,
            1574.0,
            1576.3,
            1578.6,
            1580.9,
            1583.2,
            1585.4,
            1587.8,
            1590.1,
            1592.4,
            1594.7,
            1597.0,
            1599.3,
            1601.6,
            1604.0,
            1606.3,
            1608.6,
            1611.0,
            1613.4,
            1615.7,
            1618.1,
            1620.4,
            1622.8,
            1625.2,
            1627.6,
            1630.0,
            1632.4,
            1634.8,
            1637.2,
            1639.6,
            1642.0,
            1644.4,
            1646.8,
            1649.3,
            1651.7,
            1654.1,
            1656.6,
            1659.1,
            1661.5,
            1664.0,
            1666.4,
            1668.9,
            1671.4,
            1673.9,
            1676.4,
            1678.9,
            1681.4,
            1683.9,
            1686.4,
            1688.9,
            1691.4,
            1694.0,
            1696.5,
            1699.1,
            1701.6,
            1704.1,
            1706.7,
            1709.3,
            1711.9,
            1714.4,
            1717.0,
            1719.6,
            1722.2,
            1724.8,
            1727.4,
            1730.0,
            1732.6,
            1735.3,
            1737.9,
            1740.5,
            1743.2,
            1745.8,
            1748.5,
            1751.1,
            1753.8,
            1756.5,
            1759.1,
            1761.8,
            1764.5,
            1767.2,
            1769.9,
            1772.6,
            1775.3,
            1778.1,
            1780.8,
            1783.5,
            1786.3,
            1789.0,
            1791.8,
            1794.5,
            1797.3,
            1800.1,
            1802.9,
            1805.6,
            1808.4,
            1811.2,
            1814.0,
            1816.8,
            1819.7,
            1822.5,
            1825.3,
            1828.1,
            1831.0,
            1833.9,
            1836.7,
            1839.6,
            1842.4,
            1845.3,
            1848.2,
            1851.1,
            1854.0,
            1856.9,
            1859.8,
            1862.7,
            1865.6,
            1868.6,
            1871.5,
            1874.5,
            1877.4,
            1880.4,
            1883.4,
            1886.3,
            1889.3,
            1892.3,
            1895.3,
            1898.3,
            1901.3,
            1904.3,
            1907.3,
            1910.4,
            1913.4,
            1916.4,
            1919.5,
            1922.6,
            1925.6,
            1928.7,
            1931.8,
            1934.9,
            1938.0,
            1941.1,
            1944.2,
            1947.3,
            1950.4,
            1953.6,
            1956.7,
            1959.9,
            1963.0,
            1966.2,
            1969.4,
            1972.5,
            1975.7,
            1978.9,
            1982.1,
            1985.3,
            1988.6,
            1991.8,
            1995.0,
            1998.3,
            2001.5,
            2004.8,
            2008.0,
            2011.3,
            2014.6,
            2017.9,
            2021.2,
            2024.5,
            2027.8,
            2031.1,
            2034.5,
            2037.8,
            2041.1,
            2044.5,
            2047.9,
            2051.2,
            2054.6,
            2058.0,
            2061.4,
            2064.8,
            2068.2,
            2071.6,
            2075.1,
            2078.5,
            2082.0,
            2085.4,
            2088.9,
            2092.4,
            2095.9,
            2099.3,
            2102.8,
            2106.4,
            2109.9,
            2113.4,
            2116.9,
            2120.5,
            2124.0,
            2127.6,
            2131.2,
            2134.7,
            2138.3,
            2141.9,
            2145.5,
            2149.1,
            2152.8,
            2156.4,
            2160.1,
            2163.7,
            2167.4,
            2171.0,
            2174.7,
            2178.4,
            2182.1,
            2185.8,
            2189.5,
            2193.3,
            2197.0,
            2200.8,
            2204.5,
            2208.3,
            2212.1,
            2215.9,
            2219.6,
            2223.5,
            2227.3,
            2231.1,
            2234.9,
            2238.8,
            2242.6,
            2246.5,
            2250.4,
            2254.3,
            2258.1,
            2262.0,
            2266.0,
            2269.9,
            2273.8,
            2277.8,
            2281.7,
            2285.7,
            2289.7,
            2293.7,
            2297.7,
            2301.7,
            2305.7,
            2309.7,
            2313.8,
            2317.8,
            2321.9,
            2325.9,
            2330.0,
            2334.1,
            2338.2,
            2342.3,
            2346.5,
            2350.6,
            2354.7,
            2358.9,
            2363.1,
            2367.3,
            2371.4,
            2375.6,
            2379.9,
            2384.1,
            2388.3,
            2392.6,
            2396.8,
            2401.1,
            2405.4,
            2409.7,
            2414.0,
            2418.3,
            2422.6,
            2427.0,
            2431.3,
            2435.7,
            2440.0,
            2444.4,
            2448.8,
            2453.2,
            2457.7,
            2462.1,
            2466.5,
            2471.0,
            2475.5,
            2480.0,
            2484.5,
            2489.0,
            2493.5,
            2498.0,
            2502.5,
            2507.1,
            2511.7,
            2516.3,
            2520.9,
            2525.5,
            2530.1,
            2534.7,
            2539.4,
            2544.0,
            2548.7,
            2553.4,
            2558.1,
            2562.8,
            2567.5,
            2572.2,
            2577.0,
            2581.7,
            2586.5,
            2591.3,
            2596.1,
            2600.9,
            2605.7,
            2610.6,
            2615.4,
            2620.3,
            2625.2,
            2630.1,
            2635.0,
            2639.9,
            2644.9,
            2649.8,
            2654.8,
            2659.7,
            2664.7,
            2669.7,
            2674.8,
            2679.8,
            2684.9,
            2689.9,
            2695.0,
            2700.1,
            2705.2,
            2710.3,
            2715.4,
            2720.6,
            2725.8,
            2730.9,
            2736.1,
            2741.3,
            2746.6,
            2751.8,
            2757.1,
            2762.3,
            2767.6,
            2772.9,
            2778.2,
            2783.6,
            2788.9,
            2794.3,
            2799.6,
            2805.0,
            2810.4,
            2815.9,
            2821.3,
            2826.8,
            2832.2,
            2837.7,
            2843.2,
            2848.7,
            2854.3,
            2859.8,
            2865.4,
            2871.0,
            2876.6,
            2882.2,
            2887.8,
            2893.5,
            2899.1,
            2904.8,
            2910.5,
            2916.2,
            2922.0,
            2927.7,
            2933.5,
            2939.3,
            2945.0,
            2950.9,
            2956.7,
            2962.5,
            2968.4,
            2974.3,
            2980.2,
            2986.1,
            2992.1,
            2998.0,
            3004.0,
            3010.0,
            3016.0,
            3022.0,
            3028.1,
            3034.1,
            3040.2,
            3046.3,
            3052.5,
            3058.6,
            3064.8,
            3070.9,
            3077.1,
            3083.3,
            3089.6,
            3095.8,
            3102.1,
            3108.4,
            3114.7,
            3121.0,
            3127.4,
            3133.7,
            3140.1,
            3146.5,
            3152.9,
            3159.4,
            3165.9,
            3172.3,
            3178.8,
            3185.4,
            3191.9,
            3198.5,
            3205.1,
            3211.7,
            3218.3,
            3224.9,
            3231.6,
            3238.3,
            3245.0,
            3251.7,
            3258.5,
            3265.2,
            3272.0,
            3278.9,
            3285.7,
            3292.5,
            3299.4,
            3306.3,
            3313.2,
            3320.2,
            3327.1,
            3334.1,
            3341.1,
            3348.2,
            3355.2,
            3362.3,
            3369.4,
            3376.5,
            3383.6,
            3390.8,
            3398.0,
            3405.2,
            3412.5,
            3419.7,
            3427.0,
            3434.3,
            3441.6,
            3449.0,
            3456.3,
            3463.7,
            3471.2,
            3478.6,
            3486.1,
            3493.6,
            3501.1,
            3508.6,
            3516.2,
            3523.8,
            3531.4,
            3539.0,
            3546.7,
            3554.4,
            3562.1,
            3569.8,
            3577.6,
            3585.4,
            3593.2,
            3601.0,
            3608.9,
            3616.8,
            3624.7,
            3632.7,
            3640.6,
            3648.6,
            3656.7,
            3664.7,
            3672.8,
            3680.9,
            3689.0,
            3697.2,
            3705.4,
            3713.6,
            3721.8,
            3730.1,
            3738.4,
            3746.7,
            3755.0,
            3763.4,
            3771.8,
            3780.3,
            3788.7,
            3797.2,
            3805.7,
            3814.3,
            3822.9,
            3831.5,
            3840.1,
            3848.8,
            3857.5,
            3866.2,
            3874.9,
            3883.7,
            3892.5,
            3901.4,
            3910.2,
            3919.1,
            3928.1,
            3937.0,
            3946.0,
            3955.0,
            3964.1,
            3973.2,
            3982.3,
            3991.5,
            4000.6,
            4009.9,
            4019.1,
            4028.4,
            4037.7,
            4047.0,
            4056.4,
            4065.8,
            4075.2,
            4084.7,
            4094.2,
            4103.8,
            4113.3,
            4122.9,
            4132.6,
            4142.2,
            4151.9,
            4161.7,
            4171.5,
            4181.3,
            4191.1,
            4201.0,
            4210.9,
            4220.8,
            4230.8,
            4240.9,
            4250.9,
            4261.0,
            4271.1,
            4281.3,
            4291.5,
            4301.7,
            4312.0,
            4322.3,
            4332.7,
            4343.0,
            4353.5,
            4363.9,
            4374.4,
            4385.0,
            4395.5,
            4406.1,
            4416.8,
            4427.5,
            4438.2,
            4449.0,
            4459.8,
            4470.6,
            4481.5,
            4492.4,
            4503.4,
            4514.4,
            4525.4,
            4536.5,
            4547.7,
            4558.8,
            4570.0,
            4581.3,
            4592.6,
            4603.9,
            4615.3,
            4626.7,
            4638.1,
            4649.6,
            4661.2,
            4672.8,
            4684.4,
            4696.1,
            4707.8,
            4719.6,
            4731.4,
            4743.2,
            4755.1,
            4767.0,
            4779.0,
            4791.1,
            4803.2,
            4815.3,
            4827.4,
            4839.7,
            4851.9,
            4864.2,
            4876.6,
            4889.0,
            4901.4,
            4913.9,
            4926.5,
            4939.0,
            4951.7,
            4964.4,
            4977.1,
            4989.9,
            5002.7,
            5015.6,
            5028.5,
            5041.5,
            5054.6,
            5067.7,
            5080.8,
            5094.0,
            5107.2,
            5120.5,
            5133.9,
            5147.3,
            5160.7,
            5174.2,
            5187.8,
            5201.4,
            5215.0,
            5228.8,
            5242.5,
            5256.3,
            5270.2,
            5284.2,
            5298.1,
            5312.2,
            5326.3,
            5340.4,
            5354.7,
            5368.9,
            5383.3,
            5397.6,
            5412.1,
            5426.6,
            5441.1,
            5455.8,
            5470.4,
            5485.2,
            5500.0,
            5514.8,
            5529.7,
            5544.7,
            5559.7,
            5574.8,
            5590.0,
            5605.2,
            5620.5,
            5635.8,
            5651.3,
            5666.7,
            5682.3,
            6127.1,
            6144.6,
            6162.1,
            6179.7,
            6197.4,
            6215.2,
            6233.0,
            6251.0,
            6269.0,
            6287.0,
            6305.2,
            6323.5,
            6341.8,
            6360.2,
            6378.6,
            6397.2,
            6415.8,
            6434.5,
            6453.3,
            6472.2,
            6491.2,
            6510.3,
            6529.4,
            6548.6,
            6567.9,
            6587.3,
            6606.8,
            6626.3,
            6646.0,
            6665.7,
            6685.5,
            6705.4,
            6725.4,
            6745.5,
            6765.7,
            6786.0,
            6806.3,
            6826.8,
            6847.3,
            6868.0,
            6888.7,
            6909.5,
            6930.5,
            6951.5,
            6972.6,
            6993.8,
            7015.1,
            7036.5,
            7058.0,
            7079.6,
            7101.3,
            7123.1,
            7145.0,
            7167.0,
            7189.1,
            7211.3,
            7233.6,
            7256.0,
            7278.6,
            7301.2,
            7323.9,
            7346.8,
            7369.7,
            7392.8,
            7415.9,
            7439.2,
            7462.5,
            7486.0,
            7509.6,
            7533.3,
            7557.2,
            7581.1,
            7605.1,
            7629.3,
            7653.6,
            7678.0,
            7702.5,
            7727.1,
            7751.8,
            7776.7,
            7801.7,
            7826.8,
            7852.0,
            7877.4,
            7902.9,
            7928.5,
            7954.2,
            7980.0,
            8006.0,
            8032.1,
            8058.3,
            8084.7,
            8111.2,
            8137.8,
            8164.5,
            8191.4,
            8218.4,
            8245.6,
            8272.8,
            8300.3,
            8327.8,
            8355.5,
            8383.3,
            8411.3,
            8439.4,
            8467.7,
            8496.0,
            8524.6,
            8553.3,
            8582.1,
            8611.1,
            8640.2,
            8669.4,
            8698.8,
            8728.4,
            8758.1,
            8788.0,
            8818.0,
            8848.2,
            8878.5,
            8909.0,
            8939.6,
            8970.4,
            9001.4,
            9032.5,
            9063.8,
            9095.2,
            9126.8,
            9158.6,
            9190.5,
            9222.7,
            9254.9,
            9287.4,
            9320.0,
            9352.8,
            9385.7,
            9418.9,
            9452.2,
            9485.7,
            9519.3,
            9553.2,
            9587.2,
            9621.4,
            9655.8,
            9690.4,
            9725.1,
            9760.1,
            9795.2,
            9830.6,
            9866.1,
            9901.8,
            9937.7,
            9973.8,
            10010.0,
            10047.0,
            10083.0,
            10120.0,
            10157.0,
            10195.0,
            10232.0,
            10270.0,
            10308.0,
            10346.0,
            10384.0,
            10423.0,
            10462.0,
            10501.0,
            10540.0,
            10579.0,
            10619.0,
            10659.0,
            10699.0,
            10739.0,
            10780.0,
            10821.0,
            10862.0,
            10903.0,
            10944.0,
            10986.0,
            11028.0,
            11070.0,
            11113.0,
            11156.0,
            11198.0,
            11242.0,
            11285.0,
            11329.0,
            11373.0,
            11417.0,
            11461.0,
            11506.0,
            11551.0,
            11596.0,
            11642.0,
            11688.0,
            11734.0,
            11780.0,
            11827.0,
            11874.0,
            11921.0,
            11968.0,
            12016.0,
            12064.0,
            12112.0,
            12161.0,
            12210.0,
            12259.0,
            12308.0,
            12358.0,
            12408.0,
            12459.0,
            12509.0,
            12560.0,
            12612.0,
            12663.0,
            12715.0,
            12768.0,
            12820.0,
            12873.0,
            12926.0,
            12980.0,
            13034.0,
            13088.0,
            13143.0,
            13198.0,
            13253.0,
            13308.0,
            13364.0,
            13421.0,
            13477.0,
            13534.0,
            13592.0,
            13650.0,
            13708.0,
            13766.0,
            13825.0,
            13884.0,
            13944.0,
            14004.0,
            14065.0,
            14125.0,
            14187.0,
            14248.0,
            14310.0,
            14373.0,
            14436.0,
            14499.0,
            14562.0,
            14626.0,
            14691.0,
            14756.0,
            14821.0,
            14887.0,
            14953.0,
            15020.0,
            15087.0,
            15155.0,
            15223.0,
            15291.0,
            15360.0,
            15430.0,
            15500.0,
            15570.0,
            15641.0,
            15712.0,
            15784.0,
            15856.0,
            15929.0,
            16002.0,
            16076.0,
            16151.0,
            16225.0,
            16301.0,
            16377.0,
            16453.0,
            16530.0,
            16608.0,
            16686.0,
            16764.0,
            16843.0,
            16923.0,
            17003.0,
            17084.0,
            17166.0,
            17248.0,
            17330.0,
            17414.0,
            17497.0,
            17582.0,
            17667.0,
            17753.0,
            17839.0,
            17926.0,
            18013.0,
            18102.0,
            18190.0,
            18280.0,
            18370.0,
            18461.0,
            18552.0,
            18645.0,
            18737.0,
            18831.0,
            18925.0,
            19020.0,
            19116.0,
            19212.0,
            19310.0,
            19407.0,
            19506.0,
            19605.0,
            19706.0,
            19806.0,
            19908.0,
            20011.0,
            20114.0,
            20218.0,
            20323.0,
            20429.0,
            20535.0,
            20643.0,
            20751.0,
            20860.0,
            20970.0,
            21081.0,
            21192.0,
            21305.0,
            21418.0,
            21533.0,
            21648.0,
            21764.0,
            21881.0,
            21999.0,
            22119.0,
            22239.0,
            22360.0,
            22482.0,
            22605.0,
            22729.0,
            22854.0,
            22980.0,
            23107.0,
            23235.0,
            23364.0,
            23495.0,
            23626.0,
            23759.0,
            23892.0,
            24027.0,
            24163.0,
            24300.0,
            24438.0,
            24578.0,
            24719.0,
            24860.0,
            25004.0,
            25148.0,
            25293.0,
            25440.0,
            25588.0,
            25738.0,
            25889.0,
            26041.0,
            26194.0,
            26349.0,
            26505.0,
            26662.0,
            26821.0,
            26982.0,
            27144.0,
            27307.0,
            27472.0,
            27638.0,
            27806.0,
            27975.0,
            28146.0,
            28318.0,
            28492.0,
            28668.0,
            28845.0,
            29024.0,
            29204.0,
            29387.0,
            29570.0,
            29756.0,
            29944.0
          ],
          [
            13.436,
            11.351,
            10.053,
            10.476,
            12.597,
            10.55,
            11.431,
            11.956,
            12.015,
            12.878,
            13.218,
            12.758,
            13.607,
            14.504,
            15.789,
            22.667,
            31.442,
            45.147,
            69.255,
            75.247,
            66.696,
            46.404,
            28.62,
            15.591,
            14.225,
            11.902,
            14.364,
            14.886,
            14.979,
            16.922,
            21.378,
            22.125,
            29.763,
            33.539,
            46.252,
            66.087,
            117.23,
            205.38,
            317.55,
            388.58,
            377.85,
            266.74,
            154.57,
            83.125,
            45.007,
            28.809,
            22.713,
            18.24,
            23.255,
            24.669,
            31.658,
            33.365,
            31.54,
            26.32,
            20.377,
            17.195,
            16.552,
            17.001,
            18.622,
            22.152,
            24.673,
            27.964,
            27.895,
            30.317,
            24.402,
            20.915,
            23.106,
            24.69,
            30.557,
            37.684,
            48.254,
            52.707,
            58.772,
            62.659,
            69.828,
            77.732,
            85.353,
            91.822,
            89.762,
            86.158,
            78.785,
            70.609,
            62.839,
            50.012,
            47.222,
            43.946,
            38.208,
            39.734,
            44.257,
            45.371,
            34.612,
            22.242,
            13.385,
            12.17,
            10.928,
            9.7788,
            8.7202,
            9.3206,
            9.7152,
            9.7473,
            9.2232,
            12.892,
            14.208,
            16.568,
            30.449,
            49.6,
            69.702,
            67.657,
            46.67,
            24.115,
            13.982,
            7.265,
            3.2407,
            3.0727,
            6.0016,
            7.2709,
            12.669,
            33.036,
            63.336,
            79.178,
            61.502,
            28.792,
            12.461,
            6.1299,
            4.7077,
            8.1301,
            16.546,
            37.322,
            64.86,
            82.661,
            69.991,
            48.604,
            29.435,
            21.274,
            14.995,
            11.525,
            9.1345,
            8.552,
            5.792,
            6.8,
            6.2014,
            6.5028,
            6.6364,
            6.5388,
            6.2129,
            7.3556,
            9.429,
            13.81,
            23.297,
            43.782,
            76.842,
            87.81,
            78.137,
            53.912,
            37.32,
            25.05,
            19.317,
            17.406,
            17.482,
            20.319,
            20.137,
            23.181,
            30.771,
            40.738,
            53.982,
            68.608,
            124.61,
            297.66,
            571.28,
            660.23,
            445.3,
            219.62,
            100.44,
            57.734,
            39.245,
            28.79,
            24.557,
            22.49,
            24.542,
            27.759,
            29.24,
            27.547,
            27.727,
            25.743,
            23.841,
            18.452,
            15.01,
            16.836,
            16.513,
            15.083,
            17.122,
            22.54,
            24.781,
            31.197,
            36.127,
            41.627,
            44.043,
            44.992,
            38.952,
            32.567,
            26.637,
            23.914,
            20.765,
            26.869,
            33.386,
            47.44,
            68.421,
            105.69,
            151.16,
            194.26,
            221.95,
            226.94,
            203.88,
            166.45,
            120.91,
            82.605,
            59.766,
            35.306,
            27.774,
            19.07,
            14.611,
            11.499,
            9.3077,
            9.362,
            8.0891,
            7.2385,
            5.6944,
            6.4491,
            6.091,
            4.4866,
            5.6547,
            4.0561,
            5.2902,
            5.0055,
            5.6841,
            5.3997,
            4.6364,
            7.0229,
            5.8496,
            4.8845,
            4.7397,
            4.5953,
            5.6733,
            5.6634,
            3.7588,
            5.914,
            4.2173,
            4.3445,
            3.3281,
            5.2689,
            4.9245,
            4.7151,
            5.3749,
            5.9659,
            5.6226,
            5.4133,
            6.5326,
            7.4495,
            8.6944,
            12.513,
            15.791,
            20.442,
            32.642,
            46.773,
            65.908,
            78.633,
            85.305,
            79.623,
            64.642,
            53.612,
            39.152,
            29.829,
            24.866,
            19.921,
            26.765,
            32.62,
            49.859,
            60.957,
            76.866,
            93.67,
            103.99,
            106.71,
            118.55,
            118.71,
            128.4,
            133.83,
            126.22,
            107.97,
            100.19,
            80.611,
            65.104,
            56.945,
            42.845,
            30.349,
            27.628,
            22.875,
            21.35,
            25.746,
            33.631,
            40.137,
            59.056,
            64.756,
            72.388,
            66.038,
            60.076,
            52.557,
            46.157,
            43.591,
            38.982,
            35.414,
            36.189,
            33.24,
            35.395,
            37.602,
            32.755,
            38.891,
            36.439,
            38.687,
            38.378,
            39.962,
            43.784,
            47.828,
            48.68,
            52.289,
            50.492,
            58.705,
            60.173,
            65.54,
            69.025,
            69.072,
            78.276,
            81.891,
            83.588,
            87.699,
            81.265,
            85.709,
            78.499,
            66.281,
            62.616,
            54.234,
            46.224,
            36.425,
            27.343,
            20.105,
            16.056,
            15.011,
            11.268,
            12.202,
            14.534,
            21.615,
            28.558,
            40.159,
            54.835,
            66.624,
            74.931,
            78.169,
            73.328,
            66.63,
            57.699,
            45.173,
            38.562,
            32.085,
            27.708,
            26.293,
            23.412,
            21.249,
            22.674,
            20.574,
            19.996,
            23.141,
            21.16,
            18.217,
            15.715,
            12.847,
            11.754,
            11.945,
            14.0,
            15.143,
            24.031,
            32.674,
            50.168,
            71.029,
            91.55,
            104.84,
            95.361,
            78.106,
            62.22,
            38.719,
            32.186,
            26.457,
            22.878,
            21.902,
            24.707,
            28.947,
            31.882,
            31.103,
            27.759,
            22.428,
            17.526,
            14.225,
            13.23,
            11.78,
            12.114,
            8.3901,
            8.779,
            7.0449,
            6.3255,
            5.7597,
            4.3921,
            4.0325,
            4.7753,
            4.1164,
            3.9587,
            4.15,
            4.3902,
            4.6296,
            6.3038,
            9.1085,
            13.531,
            16.805,
            17.56,
            16.153,
            12.255,
            8.7613,
            3.9144,
            3.2735,
            3.0238,
            2.0958,
            2.4788,
            2.5704,
            3.2407,
            3.9568,
            7.2187,
            8.0209,
            12.557,
            17.65,
            23.871,
            26.59,
            29.442,
            33.091,
            37.106,
            46.639,
            50.001,
            39.163,
            30.2,
            16.997,
            8.5284,
            4.0208,
            2.8921,
            2.0472,
            1.6241,
            2.921,
            3.2397,
            2.6316,
            4.6125,
            6.6323,
            7.264,
            12.487,
            19.984,
            38.577,
            74.555,
            123.67,
            169.52,
            200.97,
            185.5,
            134.54,
            90.19,
            46.314,
            24.165,
            16.57,
            9.6751,
            6.1192,
            5.6604,
            3.9095,
            4.0799,
            2.4715,
            2.7771,
            2.993,
            3.7828,
            3.996,
            3.7239,
            6.1511,
            10.89,
            21.933,
            51.337,
            96.061,
            135.8,
            147.64,
            122.87,
            82.448,
            45.566,
            26.116,
            18.215,
            17.79,
            14.705,
            19.304,
            33.082,
            64.309,
            112.37,
            168.66,
            188.94,
            175.77,
            141.22,
            115.0,
            105.93,
            120.88,
            149.57,
            170.02,
            192.11,
            230.49,
            301.23,
            387.05,
            428.08,
            394.81,
            306.38,
            206.56,
            138.83,
            97.536,
            74.173,
            57.643,
            44.888,
            40.607,
            35.084,
            31.569,
            27.34,
            25.791,
            21.711,
            20.943,
            19.015,
            18.616,
            17.819,
            17.823,
            15.081,
            16.083,
            15.257,
            14.118,
            13.063,
            12.721,
            12.381,
            12.434,
            11.586,
            11.484,
            11.734,
            11.866,
            11.22,
            12.864,
            13.612,
            14.28,
            13.094,
            14.299,
            15.498,
            18.072,
            23.274,
            26.204,
            28.855,
            32.56,
            28.587,
            22.434,
            17.364,
            12.691,
            9.6923,
            8.3581,
            8.4908,
            9.8574,
            12.824,
            24.57,
            57.686,
            115.57,
            186.84,
            213.49,
            167.17,
            106.95,
            57.471,
            40.418,
            36.677,
            35.471,
            28.403,
            21.726,
            15.33,
            14.502,
            20.04,
            29.741,
            35.19,
            37.491,
            33.22,
            27.211,
            24.334,
            23.109,
            21.532,
            27.631,
            29.17,
            35.901,
            39.746,
            44.562,
            47.108,
            47.469,
            50.139,
            60.241,
            66.989,
            58.085,
            47.826,
            41.075,
            43.483,
            33.695,
            26.082,
            23.244,
            18.873,
            17.876,
            13.534,
            11.63,
            11.062,
            11.787,
            13.322,
            22.092,
            33.223,
            34.201,
            29.491,
            24.363,
            26.424,
            32.488,
            43.064,
            43.943,
            37.873,
            34.315,
            32.16,
            42.465,
            58.134,
            74.858,
            74.576,
            63.975,
            55.05,
            47.304,
            38.806,
            32.716,
            23.536,
            18.05,
            15.849,
            17.139,
            18.23,
            19.22,
            16.233,
            12.107,
            8.4122,
            5.2419,
            5.8349,
            7.9796,
            13.344,
            28.765,
            54.938,
            75.781,
            93.023,
            87.068,
            65.908,
            36.718,
            19.575,
            12.945,
            10.623,
            14.904,
            24.76,
            44.966,
            60.844,
            66.217,
            65.899,
            68.211,
            58.489,
            41.952,
            40.256,
            53.218,
            55.047,
            43.817,
            28.109,
            24.681,
            32.228,
            36.717,
            30.422,
            18.959,
            10.431,
            11.866,
            16.469,
            24.517,
            32.797,
            49.329,
            65.94,
            65.482,
            51.049,
            46.909,
            61.784,
            99.925,
            162.27,
            195.78,
            157.73,
            104.77,
            68.552,
            63.751,
            62.587,
            81.368,
            109.51,
            117.04,
            100.23,
            68.88,
            43.5,
            27.506,
            18.299,
            14.174,
            16.057,
            24.894,
            36.13,
            37.649,
            29.538,
            19.121,
            15.497,
            16.713,
            15.543,
            13.827,
            12.145,
            15.584,
            27.022,
            55.965,
            105.47,
            135.25,
            105.07,
            54.145,
            47.447,
            74.314,
            120.74,
            148.83,
            141.69,
            136.92,
            171.73,
            236.28,
            222.86,
            125.65,
            51.276,
            23.46,
            15.348,
            12.836,
            18.601,
            31.882,
            59.474,
            81.013,
            90.948,
            72.651,
            40.104,
            38.593,
            64.792,
            70.186,
            47.891,
            24.377,
            14.517,
            10.234,
            12.564,
            18.636,
            26.897,
            35.175,
            49.808,
            52.664,
            40.787,
            28.606,
            31.463,
            35.863,
            34.31,
            29.915,
            21.873,
            16.627,
            14.953,
            13.484,
            14.345,
            12.711,
            14.161,
            13.861,
            10.963,
            10.499,
            11.234,
            14.353,
            17.799,
            22.346,
            27.793,
            28.604,
            24.469,
            20.953,
            21.677,
            18.565,
            9.8963,
            5.4863,
            4.1416,
            3.5862,
            3.8154,
            4.5366,
            8.3011,
            13.087,
            12.379,
            9.166,
            13.056,
            13.006,
            6.7804,
            2.626,
            2.7831,
            3.8896,
            3.581,
            2.4197,
            2.0231,
            1.8119,
            2.244,
            3.7276,
            5.114,
            5.172,
            6.0947,
            13.783,
            25.204,
            27.529,
            21.31,
            16.828,
            27.207,
            63.313,
            112.11,
            126.35,
            113.45,
            66.347,
            29.059,
            17.579,
            15.772,
            13.973,
            16.348,
            45.751,
            93.917,
            86.125,
            40.838,
            18.452,
            11.119,
            6.3362,
            4.5445,
            4.1021,
            6.2107,
            19.953,
            63.654,
            89.507,
            63.031,
            43.079,
            49.01,
            56.279,
            47.364,
            22.174,
            7.7556,
            3.9792,
            5.1936,
            6.8448,
            6.5996,
            12.243,
            25.077,
            28.072,
            28.993,
            37.349,
            29.35,
            15.403,
            8.9685,
            8.2284,
            8.8076,
            16.63,
            23.231,
            19.565,
            21.789,
            25.428,
            14.629,
            10.544,
            13.192,
            28.224,
            25.566,
            10.255,
            5.0574,
            9.1706,
            20.658,
            26.535,
            21.506,
            23.962,
            39.919,
            61.185,
            85.262,
            91.913,
            66.319,
            49.458,
            47.534,
            39.001,
            27.484,
            17.921,
            8.9988,
            6.1343,
            10.216,
            16.342,
            14.538,
            15.025,
            17.329,
            16.394,
            23.948,
            46.199,
            62.278,
            45.357,
            23.744,
            22.07,
            24.903,
            28.043,
            37.224,
            28.521,
            44.679,
            63.878,
            43.204,
            27.236,
            30.934,
            43.496,
            38.667,
            16.963,
            10.377,
            6.7663,
            15.19,
            20.319,
            14.151,
            15.525,
            16.06,
            23.111,
            24.191,
            22.056,
            20.847,
            17.071,
            8.1574,
            5.4199,
            11.974,
            41.088,
            52.529,
            23.118,
            6.7568,
            6.4788,
            10.661,
            10.041,
            11.117,
            13.051,
            13.361,
            11.724,
            5.9249,
            7.9765,
            6.4966,
            16.22,
            45.744,
            44.603,
            35.273,
            23.469,
            12.208,
            10.377,
            28.518,
            49.615,
            31.739,
            23.659,
            19.228,
            10.059,
            8.9514,
            22.366,
            31.29,
            13.859,
            7.9566,
            14.094,
            9.7777,
            11.439,
            16.389,
            18.592,
            20.389,
            16.911,
            12.333,
            10.319,
            5.901,
            5.747,
            4.792,
            4.4388,
            4.4859,
            6.932,
            10.174,
            14.66,
            14.601,
            14.741,
            11.095,
            7.8021,
            4.8614,
            3.4659,
            3.0164,
            4.2561,
            4.7498,
            5.4412,
            8.1148,
            9.6455,
            14.789,
            20.569,
            24.561,
            24.398,
            21.962,
            16.075,
            10.836,
            7.28,
            6.1423,
            5.1044,
            4.1171,
            6.0322,
            5.7335,
            8.6765,
            10.389,
            10.725,
            15.669,
            19.97,
            32.197,
            40.591,
            50.589,
            51.388,
            46.911,
            38.439,
            26.759,
            16.506,
            11.868,
            10.206,
            7.6209,
            9.8523,
            9.8946,
            11.344,
            17.317,
            22.077,
            29.024,
            36.506,
            46.418,
            50.212,
            53.714,
            54.399,
            52.461,
            42.115,
            36.239,
            29.243,
            22.78,
            19.136,
            16.61,
            14.229,
            13.015,
            12.092,
            11.898,
            10.148,
            10.052,
            8.6907,
            8.7401,
            9.7628,
            10.007,
            13.366,
            17.116,
            23.397,
            39.466,
            61.624,
            80.914,
            93.876,
            82.293,
            55.17,
            31.11,
            15.766,
            6.7538,
            4.0255,
            4.5132,
            5.6834,
            8.1211,
            9.8281,
            10.804,
            10.074,
            10.904,
            10.3,
            10.439,
            15.607,
            20.28,
            29.822,
            33.504,
            33.139,
            27.569,
            29.348,
            34.09,
            43.389,
            56.315,
            66.267,
            68.501,
            76.931,
            75.381,
            70.11,
            53.487,
            39.445,
            26.821,
            18.796,
            13.143,
            13.376,
            15.873,
            20.196,
            23.745,
            25.366,
            24.872,
            22.793,
            15.533,
            10.487,
            7.1724,
            7.3605,
            8.6503,
            12.381,
            14.146,
            17.249,
            14.946,
            14.317,
            10.107,
            8.0014,
            7.2819,
            9.9507,
            15.574,
            25.055,
            34.862,
            40.232,
            45.884,
            43.534,
            39.807,
            38.794,
            37.497,
            37.294,
            38.707,
            40.405,
            41.39,
            40.38,
            39.229,
            39.503,
            45.042,
            45.647,
            40.846,
            29.365,
            16.943,
            12.059,
            15.04,
            26.639,
            44.436,
            61.042,
            79.251,
            91.635,
            83.055,
            65.303,
            48.929,
            35.728,
            31.656,
            27.965,
            24.085,
            18.174,
            10.894,
            10.468,
            14.908,
            20.908,
            24.828,
            19.96,
            12.826,
            6.401,
            3.4248,
            2.8106,
            2.1965,
            3.8024,
            4.6998,
            5.4556,
            6.6837,
            6.4005,
            8.0068,
            9.3298,
            12.779,
            15.095,
            14.293,
            13.869,
            9.333,
            8.2941,
            8.9095,
            10.943,
            19.124,
            28.584,
            41.121,
            48.79,
            47.805,
            34.659,
            20.846,
            14.223,
            10.533,
            7.2204,
            7.7903,
            5.7549,
            5.7562,
            5.7576,
            5.0479,
            5.144,
            5.9993,
            8.2312,
            12.173,
            20.106,
            33.886,
            50.621,
            53.964,
            42.81,
            29.794,
            14.58,
            10.683,
            8.592,
            12.025,
            18.272,
            23.047,
            27.11,
            20.872,
            12.337,
            6.6593,
            5.7068,
            7.6693,
            15.898,
            28.107,
            39.898,
            45.666,
            39.268,
            30.083,
            28.709,
            25.413,
            24.514,
            19.819,
            13.003,
            7.43,
            4.4979,
            3.3445,
            4.0214,
            4.2651,
            3.9299,
            4.174,
            3.4035,
            3.7443,
            3.8436,
            7.0911,
            15.287,
            30.381,
            41.518,
            42.91,
            26.609,
            15.393,
            9.7085,
            11.763,
            14.064,
            17.443,
            19.802,
            22.605,
            22.184,
            22.301,
            21.536,
            21.997,
            28.842,
            30.49,
            32.928,
            31.334,
            21.014,
            12.599,
            7.1794,
            7.4336,
            9.4696,
            17.403,
            22.974,
            26.869,
            26.897,
            29.859,
            22.125,
            17.962,
            14.389,
            10.309,
            8.0703,
            12.435,
            17.411,
            23.052,
            23.631,
            19.837,
            12.055,
            10.204,
            11.478,
            13.515,
            17.378,
            17.653,
            17.727,
            24.862,
            34.204,
            46.118,
            40.926,
            28.723,
            13.47,
            5.8573,
            4.4293,
            6.644,
            11.334,
            18.407,
            27.151,
            31.169,
            31.525,
            30.07,
            25.186,
            16.961,
            14.801,
            16.648,
            21.217,
            32.286,
            43.338,
            36.693,
            29.974,
            23.338,
            20.951,
            24.314,
            25.414,
            20.21,
            15.202,
            11.346,
            10.513,
            11.013,
            10.123,
            8.6421,
            11.448,
            11.792,
            12.945,
            9.7858,
            7.0468,
            6.2477,
            7.8339,
            8.1211,
            9.99,
            17.163,
            24.037,
            33.68,
            43.747,
            41.03,
            37.586,
            27.659,
            17.967,
            16.451,
            19.825,
            22.991,
            32.431,
            38.888,
            42.849,
            55.267,
            83.816,
            83.388,
            62.393,
            37.554,
            24.664,
            20.672,
            16.204,
            11.714,
            12.547,
            14.998,
            23.238,
            32.215,
            33.574,
            25.803,
            17.7,
            17.57,
            22.427,
            24.193,
            28.327,
            23.614,
            16.384,
            11.375,
            8.6038,
            7.6113,
            4.6943,
            6.1511,
            4.2387,
            3.0412,
            2.0794,
            2.5723,
            4.6549,
            4.3016,
            7.3233,
            7.5305,
            12.62,
            11.792,
            11.207,
            10.183,
            7.7124,
            7.0469,
            4.11,
            3.7444,
            8.1944,
            15.537,
            23.759,
            31.909,
            27.907,
            15.3,
            8.6882,
            5.5367,
            6.1431,
            7.4735,
            11.571,
            26.901,
            45.52,
            53.325,
            35.535,
            15.402,
            9.3503,
            12.487,
            22.485,
            25.496,
            23.824,
            15.975,
            8.0626,
            5.4026,
            5.3556,
            5.7958,
            7.7083,
            9.4968,
            8.6914,
            13.971,
            19.226,
            25.1,
            30.596,
            41.263,
            43.335,
            37.058,
            28.53,
            32.117,
            52.418,
            58.677,
            63.783,
            30.705,
            12.551,
            12.7,
            12.298,
            10.004,
            12.444,
            24.05,
            27.74,
            17.127,
            6.6988,
            4.7619,
            7.7607,
            9.1162,
            13.865,
            29.114,
            29.435,
            15.237,
            4.6051,
            3.0936,
            3.8022,
            6.412,
            7.5059,
            11.347,
            17.601,
            20.504,
            19.644,
            18.419,
            15.99,
            13.724,
            12.063,
            12.417,
            13.84,
            19.222,
            29.516,
            42.886,
            50.095,
            48.54,
            39.698,
            30.382,
            19.789,
            13.226,
            11.559,
            9.8443,
            9.1899,
            9.2581,
            8.4253,
            7.9799,
            10.695,
            15.354,
            20.389,
            23.212,
            23.854,
            20.201,
            15.304,
            12.585,
            10.661,
            10.192,
            9.5464,
            10.985,
            11.99,
            14.869,
            16.931,
            25.823,
            39.653,
            50.147,
            58.905,
            62.25,
            59.594,
            53.321,
            48.241,
            41.941,
            35.578,
            25.995,
            22.74,
            23.943,
            32.315,
            37.45,
            37.537,
            31.746,
            26.388,
            27.804,
            36.048,
            42.042,
            45.05,
            36.535,
            28.458,
            19.137,
            16.772,
            19.173,
            23.565,
            25.561,
            27.257,
            24.208,
            18.465,
            14.13,
            10.491,
            10.652,
            12.133,
            13.537,
            19.575,
            19.556,
            17.953,
            12.681,
            9.2655,
            10.907,
            17.033,
            30.368,
            42.635,
            53.597,
            53.858,
            50.522,
            42.274,
            32.476,
            30.085,
            35.729,
            38.792,
            37.938,
            37.325,
            34.366,
            27.873,
            21.56,
            15.356,
            9.1154,
            5.5084,
            3.551,
            3.9992,
            3.0687,
            3.6115,
            5.3149,
            6.1622,
            6.7003,
            6.4572,
            7.5134,
            9.9593,
            11.976,
            14.389,
            18.773,
            18.426,
            21.271,
            22.235,
            23.15,
            23.969,
            24.624,
            29.201,
            37.128,
            48.561,
            51.563,
            47.929,
            40.63,
            29.375,
            23.129,
            18.726,
            17.666,
            15.266,
            13.171,
            10.689,
            9.3407,
            8.1335,
            9.0228,
            11.68,
            16.032,
            21.018,
            22.509,
            22.487,
            20.428,
            17.757,
            14.932,
            12.955,
            14.127,
            18.847,
            23.33,
            26.873,
            26.665,
            29.97,
            27.993,
            25.612,
            16.455,
            9.507,
            6.114,
            4.7107,
            6.8445,
            9.7387,
            13.683,
            16.228,
            19.373,
            21.571,
            24.078,
            33.018,
            38.099,
            39.176,
            37.956,
            31.127,
            23.377,
            15.399,
            11.632,
            11.665,
            15.153,
            22.596,
            25.005,
            23.5,
            16.328,
            9.7648,
            5.8573,
            4.4875,
            4.0874,
            4.7199,
            4.2545,
            5.9154,
            6.8944,
            10.714,
            16.361,
            22.084,
            27.817,
            34.562,
            43.752,
            59.835,
            79.447,
            83.9,
            72.006,
            53.685,
            30.556,
            17.195,
            9.4734,
            6.2728,
            5.2542,
            5.7437,
            6.7267,
            9.2752,
            12.784,
            18.707,
            27.402,
            34.624,
            38.927,
            35.515,
            27.376,
            24.026,
            20.788,
            23.51,
            25.27,
            26.623,
            26.533,
            30.719,
            35.806,
            40.841,
            40.568,
            39.915,
            31.722,
            25.061,
            18.813,
            20.243,
            28.762,
            43.614,
            50.961,
            45.303,
            34.538,
            21.227,
            13.114,
            10.33,
            9.4037,
            8.9368,
            10.631,
            13.815,
            25.636,
            40.394,
            50.406,
            47.255,
            30.073,
            16.577,
            10.668,
            13.477,
            18.418,
            28.196,
            34.404,
            37.751,
            36.894,
            28.756,
            20.635,
            14.898,
            9.9274,
            8.2059,
            4.4326,
            3.4725,
            2.4534,
            2.3697,
            2.1443,
            2.5065,
            3.1916,
            5.3302,
            6.435,
            10.018,
            10.632,
            9.9168,
            9.6252,
            10.499,
            15.063,
            15.889,
            17.214,
            15.976,
            18.138,
            27.042,
            37.642,
            43.898,
            40.49,
            32.795,
            21.403,
            14.278,
            10.062,
            9.5374,
            9.4484,
            8.1742,
            6.5868,
            5.6731,
            4.8793,
            4.0872,
            4.2009,
            4.8446,
            7.8212,
            11.615,
            13.521,
            13.625,
            12.634,
            10.65,
            8.6892,
            10.413,
            15.481,
            19.799,
            19.953,
            15.879,
            9.5849,
            6.6909,
            6.394,
            6.4067,
            6.4965,
            7.415,
            7.5036,
            8.0537,
            11.101,
            13.124,
            10.963,
            10.013,
            9.4282,
            13.089,
            14.947,
            15.828,
            16.25,
            12.349,
            8.7611,
            6.871,
            6.6551,
            8.3167,
            8.668,
            8.8292,
            8.3664,
            8.2822,
            4.8783,
            4.0252,
            3.2869,
            4.2989,
            5.3087,
            7.236,
            9.0843,
            11.977,
            15.127,
            16.942,
            15.132,
            12.692,
            13.462,
            19.905,
            28.306,
            29.985,
            25.576,
            20.193,
            13.933,
            10.219,
            8.971,
            7.7251,
            7.4405,
            8.7588,
            11.141,
            12.269,
            9.6126,
            6.2278,
            6.0746,
            7.4593,
            11.437,
            18.275,
            26.211,
            32.162,
            35.515,
            38.679,
            36.749,
            34.097,
            26.699,
            24.516,
            21.179,
            18.265,
            14.201,
            10.561,
            9.0904,
            9.0808,
            10.653,
            13.822,
            13.969,
            11.265,
            11.952,
            9.2562,
            8.6747,
            9.8257,
            14.665,
            19.976,
            23.833,
            25.603,
            25.417,
            22.18,
            15.919,
            10.964,
            10.281,
            14.385,
            19.769,
            20.03,
            14.146,
            11.001,
            11.34,
            14.488,
            24.08,
            38.539,
            44.989,
            40.24,
            25.079,
            15.094,
            13.492,
            15.357,
            18.627,
            25.189,
            27.522,
            24.131,
            16.644,
            9.3284,
            8.2474,
            11.552,
            19.211,
            22.549,
            21.286,
            16.435,
            13.533,
            12.284,
            10.627,
            10.119,
            11.715,
            12.181,
            13.686,
            14.08,
            14.695,
            15.462,
            14.528,
            12.493,
            9.887,
            11.214,
            15.616,
            16.748,
            16.14,
            14.184,
            10.733,
            8.4002,
            6.8956,
            6.5525,
            8.7589,
            9.788,
            12.036,
            13.896,
            16.669,
            17.302,
            16.134,
            11.972,
            9.9974,
            9.3556,
            13.145,
            16.594,
            19.606,
            18.179,
            13.171,
            8.7343,
            5.1478,
            4.0884,
            5.8276,
            5.9856,
            7.1937,
            9.5797,
            12.861,
            14.336,
            12.735,
            9.8812,
            7.9789,
            8.7847,
            8.3359,
            6.8151,
            4.6548,
            2.9662,
            2.8496,
            2.8949,
            5.0694,
            7.4807,
            11.528,
            11.869,
            14.393,
            20.376,
            26.987,
            24.764,
            17.798,
            13.226,
            12.701,
            14.248,
            15.474,
            14.598,
            11.77,
            7.9979,
            6.2935,
            4.8461,
            6.8641,
            15.541,
            20.461,
            21.099,
            14.812,
            7.5327,
            3.0648,
            1.7909,
            3.4965,
            9.6582,
            14.743,
            18.989,
            15.614,
            9.926,
            7.0827,
            6.2353,
            7.8584,
            13.82,
            18.126,
            18.523,
            13.727,
            8.3232,
            4.4741,
            3.8529,
            5.4485,
            7.3172,
            7.5391,
            9.0025,
            10.861,
            8.7525,
            8.1771,
            10.06,
            15.095,
            19.616,
            18.194,
            12.597,
            10.322,
            10.689,
            12.085,
            11.542,
            7.2985,
            4.8002,
            4.7947,
            4.4429,
            2.964,
            2.6601,
            4.7426,
            6.9553,
            10.181,
            13.638,
            14.534,
            12.443,
            10.089,
            13.129,
            20.89,
            25.158,
            22.919,
            17.084,
            12.521,
            8.4268,
            7.3244,
            11.711,
            18.224,
            22.264,
            19.945,
            19.159,
            19.973,
            19.554,
            15.874,
            15.359,
            14.641,
            14.128,
            16.092,
            18.852,
            19.964,
            17.851,
            13.075,
            15.348,
            23.979,
            32.951,
            29.882,
            19.918,
            10.653,
            5.7227,
            6.4628,
            9.2958,
            14.759,
            20.395,
            25.389,
            26.773,
            25.744,
            24.574,
            23.478,
            15.08,
            8.0205,
            6.0401,
            4.7017,
            3.5927,
            3.7015,
            5.0098,
            8.4579,
            13.095,
            13.769,
            15.073,
            12.263,
            9.2775,
            7.2787,
            9.9689,
            12.765,
            12.219,
            8.1085,
            5.9835,
            4.8643,
            5.1224,
            8.7362,
            13.644,
            14.001,
            12.769,
            11.553,
            17.495,
            23.865,
            29.284,
            30.692,
            28.118,
            16.886,
            8.8975,
            8.9827,
            9.6278,
            10.653,
            13.475,
            13.691,
            12.995,
            13.903,
            18.023,
            17.161,
            10.159,
            5.2146,
            3.791,
            4.3393,
            5.5057,
            7.5303,
            10.141,
            14.557,
            22.837,
            23.934,
            26.085,
            27.029,
            22.595,
            15.666,
            11.389,
            10.432,
            9.5034,
            9.7838,
            9.441,
            10.21,
            11.929,
            16.639,
            20.587,
            18.127,
            13.411,
            9.8877,
            7.3176,
            8.3965,
            11.528,
            15.475,
            15.861,
            13.025,
            11.746,
            16.324,
            23.516,
            24.773,
            24.29,
            23.885,
            24.024,
            20.87,
            15.452,
            13.926,
            15.737,
            16.746,
            16.2,
            15.449,
            16.814,
            24.418,
            35.786,
            39.661,
            41.092,
            39.145,
            26.484,
            13.484,
            5.9837,
            4.6081,
            5.4757,
            12.446,
            19.866,
            19.086,
            10.701,
            6.6877,
            8.3505,
            11.653,
            11.163,
            6.9306,
            7.6092,
            14.156,
            18.035,
            18.697,
            22.337,
            21.094,
            13.511,
            7.7532,
            8.213,
            10.017,
            10.904,
            13.205,
            17.578,
            17.998,
            14.394,
            10.04,
            9.5868,
            14.707,
            22.437,
            24.408,
            21.589,
            19.739,
            18.791,
            11.867,
            5.7604,
            3.8177,
            5.9512,
            8.7912,
            8.7319,
            5.9046,
            3.2166,
            4.3049,
            10.139,
            17.035,
            21.152,
            17.661,
            13.559,
            13.649,
            12.251,
            9.7164,
            8.6714,
            10.403,
            10.887,
            11.441,
            9.891,
            9.7605,
            11.609,
            17.018,
            28.029,
            32.03,
            28.18,
            20.021,
            20.721,
            23.776,
            24.014,
            17.497,
            10.345,
            6.5688,
            5.2031,
            7.0618,
            9.8761,
            14.185,
            17.18,
            14.691,
            12.565,
            14.515,
            22.443,
            27.678,
            24.653,
            16.546,
            14.959,
            16.218,
            14.887,
            8.4947,
            7.9041,
            11.393,
            12.612,
            12.853,
            11.893,
            12.406,
            13.122,
            14.403,
            18.327,
            22.088,
            23.338,
            24.451,
            21.843,
            17.727,
            12.334,
            9.4456,
            9.5294,
            8.0174,
            10.236,
            11.845,
            15.561,
            18.219,
            19.797,
            19.986,
            19.638,
            16.271,
            11.702,
            10.868,
            9.4778,
            8.7803,
            8.7078,
            9.3703,
            10.344,
            11.36,
            10.641,
            12.745,
            13.003,
            14.836,
            15.181,
            13.0,
            9.6698,
            6.0566,
            3.4211,
            2.8664,
            2.1799,
            2.8406,
            3.1255,
            2.881,
            4.5311,
            6.025,
            7.341,
            8.7213,
            10.056,
            10.532,
            13.312,
            14.202,
            16.033,
            14.643,
            13.999,
            13.203,
            13.5,
            12.77,
            12.151,
            11.51,
            11.656,
            10.646,
            10.334,
            9.4353,
            10.081,
            7.7716,
            7.9185,
            7.1972,
            7.9948,
            9.0731,
            9.3487,
            9.5373,
            8.601,
            7.7308,
            8.0281,
            7.5911,
            8.1038,
            9.047,
            10.334,
            10.714,
            11.051,
            11.84,
            11.08,
            9.226,
            7.8466,
            7.0266,
            5.6933,
            4.0191,
            3.3316,
            2.0676,
            2.8997,
            3.4959,
            4.6248,
            5.475,
            5.8977,
            5.489,
            6.1666,
            6.1413,
            8.157,
            9.8725,
            10.63,
            12.087,
            11.995,
            10.249,
            9.8398,
            6.9553,
            6.5065,
            7.8125,
            9.7926,
            11.939,
            12.943,
            15.865,
            17.181,
            19.38,
            18.799,
            14.036,
            12.241,
            9.7762,
            7.0422,
            6.5553,
            7.1166,
            8.3263,
            11.104,
            12.56,
            14.683,
            15.634,
            16.625,
            18.533,
            19.146,
            21.986,
            23.991,
            26.803,
            27.451,
            24.587,
            21.373,
            17.791,
            18.401,
            18.306,
            21.358,
            18.923,
            17.897,
            13.608,
            11.328,
            9.8554,
            8.2198,
            7.1016,
            6.479,
            6.3924,
            8.2183,
            8.8499,
            11.432,
            12.183,
            14.39,
            15.159,
            18.385,
            20.706,
            16.806,
            12.461,
            9.6135,
            8.7089,
            9.3354,
            9.8388,
            10.219,
            11.434,
            12.382,
            12.008,
            11.228,
            10.164,
            9.8127,
            11.388,
            12.312,
            11.98,
            10.94,
            9.9413,
            7.7926,
            5.7073,
            5.2998,
            5.9617,
            7.9932,
            10.827,
            11.826,
            13.045,
            11.529,
            7.8456,
            6.7564,
            6.6314,
            6.8675,
            8.245,
            9.1001,
            11.814,
            12.926,
            12.617,
            12.17,
            11.264,
            12.472,
            11.567,
            12.734,
            12.984,
            12.915,
            12.39,
            12.66,
            10.25,
            9.5492,
            8.2943,
            8.2689,
            8.936,
            10.433,
            12.718,
            12.196,
            13.628,
            14.506,
            18.753,
            23.112,
            25.576,
            23.965,
            18.996,
            12.954,
            9.805,
            8.6215,
            8.988,
            10.411,
            10.62,
            11.121,
            9.5497,
            8.9377,
            6.9211,
            5.7655,
            5.6446,
            5.8744,
            8.9849,
            10.885,
            11.849,
            11.2,
            9.5425,
            8.2556,
            8.4244,
            9.0773,
            8.7032,
            8.3296,
            7.5699,
            7.6613,
            8.6985,
            9.5607,
            10.171,
            8.6034,
            8.482,
            10.958,
            13.68,
            17.456,
            17.732,
            16.664,
            13.834,
            13.058,
            11.747,
            10.917,
            11.349,
            14.092,
            13.739,
            13.939,
            12.08,
            9.8805,
            8.1219,
            7.3171,
            7.9947,
            8.9571,
            9.5953,
            8.5256,
            7.4387,
            7.2624,
            8.5999,
            9.5382,
            13.157,
            18.319,
            22.604,
            23.019,
            22.398,
            17.338,
            11.722,
            11.581,
            11.216,
            12.332,
            14.533,
            15.964,
            14.791,
            11.152,
            7.837,
            7.2521,
            7.7126,
            9.1972,
            9.7857,
            9.9081,
            8.8591,
            9.2607,
            10.089,
            11.954,
            12.111,
            13.601,
            10.778,
            10.436,
            9.9478,
            11.527,
            13.934,
            15.637,
            13.801,
            12.484,
            10.838,
            10.021,
            11.811,
            12.517,
            11.096,
            9.659,
            6.5593,
            6.1335,
            6.3478,
            7.1093,
            7.9789,
            9.3391,
            9.5683,
            9.033,
            9.1348,
            8.6371,
            9.7916,
            10.146,
            9.9933,
            8.4282,
            6.8113,
            6.0828,
            6.0237,
            6.2895,
            5.3828,
            4.8019,
            4.2399,
            3.3191,
            4.1612,
            4.2117,
            4.0647,
            4.169,
            3.1623,
            3.3209,
            3.6401,
            4.7453,
            5.5094,
            6.5934,
            8.1928,
            8.9878,
            7.9659,
            7.0879,
            5.767,
            7.0231,
            7.6207,
            8.5365,
            9.1141,
            9.4961,
            10.868,
            13.139,
            13.622,
            12.394,
            9.6868,
            6.9663,
            5.0774,
            4.8974,
            4.2609,
            4.3978,
            3.3592,
            3.6369,
            4.5272,
            4.296,
            5.569,
            7.5039,
            10.972,
            16.527,
            17.804,
            16.013,
            13.233,
            12.092,
            11.509,
            13.01,
            14.161,
            13.196,
            12.632,
            8.5034,
            5.7477,
            4.862,
            4.0641,
            5.13,
            5.7461,
            7.1188,
            7.285,
            7.1072,
            7.3246,
            7.9364,
            8.8216,
            9.6196,
            10.125,
            11.092,
            12.399,
            10.869,
            8.8806,
            6.0602,
            4.011,
            3.1907,
            3.1711,
            3.2025,
            4.3035,
            4.9955,
            6.3475,
            8.0191,
            11.837,
            15.531,
            17.241,
            13.344,
            11.748,
            9.6313,
            9.5897,
            9.3462,
            10.112,
            9.9187,
            9.5413,
            8.8458,
            7.9336,
            7.8098,
            8.0878,
            7.7468,
            6.4877,
            5.7314,
            6.7104,
            8.8208,
            11.477,
            12.05,
            8.6992,
            7.3303,
            7.1086,
            7.2353,
            10.095,
            12.255,
            15.635,
            15.49,
            13.033,
            10.202,
            7.6055,
            7.7803,
            8.827,
            8.2935,
            8.3031,
            7.2292,
            6.5836,
            5.7588,
            4.1985,
            3.4425,
            3.0146,
            4.09,
            6.5834,
            9.1379,
            9.7982,
            9.7087,
            9.4241,
            8.6362,
            10.074,
            10.39,
            10.479,
            10.454,
            9.5712,
            9.1589,
            8.1496,
            7.0289,
            6.6198,
            7.4362,
            7.7359,
            8.4373,
            7.3853,
            6.2066,
            4.6126,
            3.6626,
            3.6275,
            3.8486,
            4.2292,
            4.6092,
            5.0365,
            4.2664,
            4.8527,
            4.9282,
            5.2583,
            5.8263,
            6.6953,
            7.1818,
            8.413,
            8.3425,
            9.9665,
            9.9106,
            10.092,
            9.5149,
            8.9071,
            8.8366,
            8.1359,
            7.3734,
            5.5269,
            5.428,
            5.4548,
            5.7012,
            5.0694,
            4.7988,
            4.294,
            3.4616,
            4.1617,
            6.047,
            11.238,
            10.5,
            9.5473,
            9.1373,
            9.2689,
            9.3695,
            9.4544,
            7.8125,
            7.4057,
            6.4763,
            7.0554,
            6.681,
            8.3949,
            7.5445,
            6.1745,
            5.5264,
            4.757,
            6.0679,
            5.9409,
            6.455,
            6.9835,
            6.9779,
            6.1351,
            5.1263,
            4.2561,
            4.5412,
            5.5542,
            8.1571,
            9.0896,
            7.7656,
            5.5668,
            3.3415,
            2.5087,
            2.7934,
            3.6051,
            5.7707,
            8.1583,
            8.6779,
            7.4843,
            6.863,
            6.7675,
            6.4925,
            8.0143,
            8.9203,
            10.064,
            11.027,
            9.5106,
            8.3997,
            5.9202,
            6.1387,
            7.6211,
            7.9271,
            8.1732,
            7.5732,
            8.1749,
            9.6939,
            10.026,
            9.2792,
            6.7453,
            6.4447,
            8.4309,
            12.728,
            18.063,
            20.02,
            17.446,
            14.024,
            13.058,
            12.681,
            11.953,
            11.006,
            9.2126,
            7.9481,
            8.3362,
            9.2928,
            10.569,
            11.536,
            10.683,
            9.9471,
            9.7648,
            10.411,
            10.576,
            9.6835,
            10.82,
            10.262,
            8.9807,
            7.0513,
            5.4138,
            5.9002,
            5.4198,
            5.286,
            5.3826,
            5.1914,
            5.518,
            5.8296,
            6.1551,
            5.3474,
            5.9306,
            6.2695,
            7.2658,
            7.746,
            7.3544,
            8.0763,
            7.5283,
            10.671,
            12.185,
            12.858,
            12.834,
            11.29,
            11.948,
            11.358,
            11.264,
            11.0,
            11.288,
            12.057,
            12.923,
            10.796,
            7.6579,
            6.0178,
            4.4929,
            4.0956,
            5.1325,
            5.943,
            7.4258,
            11.388,
            15.456,
            18.551,
            21.04,
            21.164,
            19.737,
            16.121,
            14.128,
            13.922,
            13.842,
            14.541,
            12.931,
            10.671,
            8.7085,
            6.8559,
            7.1266,
            7.9229,
            8.773,
            9.5524,
            9.1846,
            9.838,
            9.8977,
            7.6172,
            7.4589,
            7.4794,
            7.7195,
            8.4116,
            9.8697,
            11.298,
            11.629,
            10.183,
            8.3176,
            5.6646,
            5.2642,
            5.2321,
            6.2877,
            9.732,
            12.274,
            11.734,
            8.9324,
            7.0295,
            6.1306,
            6.503,
            7.9136,
            8.0005,
            8.3026,
            8.1602,
            8.502,
            8.5879,
            8.3516,
            7.4725,
            7.1708,
            6.4951,
            6.9834,
            7.5508,
            7.2502,
            6.9101,
            6.6772,
            8.187,
            7.7806,
            7.9722,
            6.9036,
            6.8308,
            6.1359,
            6.5135,
            7.1414,
            6.8442,
            7.0749,
            7.1076,
            6.3638,
            5.49,
            5.3665,
            7.1852,
            9.9048,
            10.89,
            11.076,
            9.8629,
            8.4954,
            8.1349,
            7.8663,
            7.5202,
            6.7845,
            6.0243,
            4.3698,
            5.5068,
            6.5379,
            7.4763,
            8.1673,
            10.988,
            12.771,
            10.876,
            9.2816,
            7.7928,
            8.8007,
            9.9093,
            9.3607,
            6.4037,
            5.117,
            4.7027,
            4.5191,
            5.2168,
            6.3977,
            7.5508,
            8.5743,
            8.8074,
            8.1255,
            7.1022,
            7.9573,
            8.418,
            9.4218,
            8.8437,
            8.2793,
            7.4637,
            7.3806,
            8.5316,
            10.045,
            10.902,
            11.632,
            11.106,
            9.7293,
            7.4419,
            5.8467,
            5.5161,
            7.7564,
            10.553,
            11.962,
            10.582,
            8.123,
            6.6623,
            7.2013,
            8.4207,
            7.6324,
            7.0559,
            6.1842,
            7.1034,
            8.4646,
            10.279,
            11.191,
            12.433,
            12.801,
            11.451,
            9.6019,
            7.5847,
            7.2468,
            7.6792,
            7.1222,
            6.286,
            6.3527,
            6.7233,
            7.0446,
            6.224,
            6.2055,
            6.5505,
            6.3501,
            7.0208,
            8.5357,
            9.6854,
            9.0727,
            8.2204,
            8.224,
            8.8525,
            10.32,
            11.269,
            9.6879,
            5.9316,
            4.2516,
            3.3991,
            4.9826,
            7.7548,
            9.9258,
            9.6777,
            12.175,
            10.987,
            10.324,
            8.8203,
            7.9354,
            8.1754,
            7.3166,
            6.7899,
            7.8553,
            6.9171,
            5.675,
            4.4002,
            3.3628,
            3.6641,
            3.5314,
            4.7562,
            5.5576,
            5.1782,
            4.3096,
            3.606,
            3.0552,
            3.0403,
            4.4541,
            4.8671,
            5.0822,
            5.5515,
            5.777,
            6.8455,
            6.6536,
            6.3122,
            6.0291,
            5.1827,
            4.1428,
            3.0132,
            4.134,
            4.5191,
            4.995,
            5.6872,
            6.1037,
            6.6791,
            7.5952,
            8.0995,
            7.3175,
            6.2076,
            6.2804,
            6.6819,
            5.6554,
            7.1088,
            7.7115,
            7.342,
            5.8906,
            4.4198,
            4.6288,
            4.5002,
            5.5846,
            7.6427,
            9.405,
            9.4284,
            7.9759,
            7.2971,
            6.9768,
            7.5489,
            7.5296,
            5.2859,
            5.2802,
            6.0181,
            8.0293,
            10.014,
            9.6382,
            7.8375,
            5.7868,
            5.604,
            6.1928,
            6.7142,
            5.7506,
            4.1193,
            3.7638,
            4.3842,
            5.7584,
            5.9598,
            5.9533,
            7.234,
            8.2286,
            8.0128,
            7.4604,
            6.4204,
            6.0553,
            5.9619,
            6.854,
            8.3713,
            9.1075,
            8.5256,
            7.2874,
            7.3009,
            6.2065,
            6.1244,
            7.9529,
            9.177,
            9.4025,
            8.4615,
            8.2278,
            7.3968,
            8.2842,
            9.649,
            10.702,
            10.86,
            8.8208,
            6.966,
            5.8884,
            6.1993,
            7.9045,
            9.0253,
            8.3404,
            6.3823,
            4.4917,
            4.4025,
            4.3031,
            4.6233,
            5.2781,
            6.078,
            6.7715,
            7.8811,
            7.5177,
            7.155,
            6.3561,
            6.089,
            6.7156,
            5.9301,
            6.5347,
            6.9723,
            6.7784,
            6.5229,
            4.7621,
            5.3954,
            7.5402,
            7.213,
            5.4076,
            4.8582,
            5.3345,
            7.867,
            8.9321,
            8.8101,
            7.8314,
            6.6714,
            6.1246,
            6.2095,
            7.5336,
            7.4646,
            6.4631,
            5.5751,
            5.0329,
            4.6232,
            5.0321,
            4.9459,
            5.6558,
            7.169,
            8.4277,
            7.6757,
            5.9923,
            5.3847,
            5.4289,
            5.8929,
            6.236,
            5.8202,
            6.5215,
            7.8485,
            9.0035,
            8.8348,
            7.7238,
            6.8728,
            6.7069,
            5.8391,
            5.1213,
            5.0759,
            5.7219,
            5.4997,
            5.6519,
            5.8334,
            6.7021,
            6.5877,
            5.6597,
            4.0672,
            4.5722,
            5.0175,
            5.5987,
            6.1105,
            5.5294,
            6.4688,
            8.1459,
            8.8769,
            8.6449,
            6.657,
            5.7877,
            6.3534,
            6.9276,
            8.1967,
            8.9031,
            8.1902,
            6.669,
            5.5455,
            5.9824,
            6.0629,
            6.5561,
            7.0961,
            8.4495,
            9.7045,
            8.5378,
            7.0008,
            7.9767,
            8.0163,
            6.7891,
            6.2589,
            6.4712,
            6.626,
            6.771,
            6.9347,
            6.8518,
            5.814,
            5.1183,
            4.8393,
            3.5237,
            3.049,
            2.5471,
            2.7794,
            3.0206,
            3.6271,
            3.3047,
            3.6288,
            4.6443,
            6.1622,
            7.0423,
            7.7435,
            7.5398,
            5.9688,
            5.4699,
            5.6219,
            5.6438,
            5.4247,
            4.8173,
            5.2189,
            6.6726,
            7.0068,
            7.6353,
            7.5258,
            6.083,
            4.7719,
            3.7663,
            3.3863,
            3.5383,
            3.7723,
            4.0971,
            4.9051,
            5.7478,
            6.288,
            6.7907,
            7.2741,
            6.4218,
            6.8319,
            6.5435,
            6.2467,
            5.5618,
            4.3726,
            5.0713,
            5.2639,
            4.871,
            4.2361,
            4.7254,
            5.7339,
            7.2241,
            5.9896,
            4.7935,
            4.5559,
            5.1128,
            5.2853,
            5.8401,
            6.9007,
            7.9677,
            8.3136,
            7.7546,
            6.4799,
            6.1011,
            4.8044,
            4.7548,
            4.8903,
            5.2104,
            5.987,
            6.1646,
            6.9295,
            6.4483,
            5.5042,
            5.288,
            4.5831,
            5.1273,
            7.3957,
            7.8223,
            6.5352,
            5.2163,
            4.1346,
            4.7188,
            5.1113,
            5.33,
            5.859,
            6.5161,
            5.0958,
            4.0228,
            4.3876,
            5.7643,
            7.3435,
            7.6517,
            8.0446,
            7.5395,
            8.1278,
            7.9477,
            7.5295,
            6.4066,
            4.5303,
            3.6511,
            3.3331,
            3.2783,
            3.6461,
            3.5404,
            3.7047,
            4.5255,
            5.7061,
            6.6234,
            6.2796,
            6.4815,
            6.1052,
            6.3486,
            6.3825,
            6.8168,
            6.7084,
            6.9831,
            8.3292,
            8.3272,
            7.8858,
            6.2695,
            4.4918,
            4.8661,
            5.025,
            6.8399,
            7.7449,
            7.9654,
            6.7485,
            5.9693,
            6.2964,
            5.2979,
            5.1433,
            5.6495,
            5.8448,
            5.1046,
            4.9348,
            5.3654,
            6.7904,
            7.6616,
            7.7069,
            7.0993,
            5.6563,
            6.4598,
            8.7135,
            8.6848,
            8.5522,
            6.0785,
            5.9819,
            5.6783,
            4.1901,
            3.6754,
            4.6537,
            6.6906,
            7.2029,
            6.5604,
            6.1485,
            5.6197,
            4.8092,
            5.2183,
            5.2106,
            4.6704,
            4.1397,
            3.7119,
            4.4548,
            6.0128,
            6.0661,
            4.8773,
            4.064,
            3.8877,
            3.5109,
            3.4671,
            2.7453,
            3.3105,
            3.5514,
            3.8682,
            3.9697,
            4.7286,
            6.0962,
            7.0556,
            7.205,
            6.5632,
            6.6065,
            7.0894,
            7.0561,
            6.5693,
            5.9859,
            5.4719,
            5.6443,
            5.6884,
            6.085,
            5.2892,
            4.5182,
            5.1687,
            5.0714,
            4.4456,
            4.0447,
            4.5435,
            5.3892,
            5.2626,
            5.3137,
            5.0842,
            6.4326,
            6.8202,
            6.8246,
            5.7137,
            5.2435,
            4.2992,
            3.7448,
            3.8922,
            4.6436,
            4.7673,
            5.0359,
            7.0942,
            8.3356,
            6.5667,
            4.7886,
            4.0175,
            3.7307,
            3.725,
            3.4825,
            3.4413,
            4.2726,
            4.1518,
            4.4519,
            4.4806,
            5.3408,
            6.532,
            6.3802,
            6.2006,
            5.5693,
            5.3491,
            6.5944,
            6.3522,
            4.8328,
            4.3065,
            4.7197,
            5.6559,
            6.9312,
            6.6975,
            5.7966,
            5.0651,
            4.6549,
            5.0909,
            4.3915,
            4.0325,
            4.1503,
            5.4858,
            6.5492,
            6.4223,
            5.0216,
            4.6786,
            4.2068,
            3.5592,
            2.9545,
            2.8614,
            4.2075,
            5.3461,
            5.1279,
            4.1876,
            3.4592,
            4.0733,
            4.9813,
            5.5038,
            5.7565,
            5.9414,
            5.4576,
            4.8886,
            5.2338,
            5.3452,
            5.5027,
            6.3095,
            7.2261,
            8.2853,
            8.7869,
            6.085,
            4.3782,
            4.5945,
            5.0658,
            4.7434,
            4.3175,
            4.0038,
            3.7954,
            2.859,
            3.1791,
            3.4723,
            4.6709,
            5.4391,
            5.7143,
            5.9629,
            6.2042,
            4.8518,
            4.1962,
            3.6516,
            3.4922,
            3.8759,
            4.4112,
            4.8494,
            5.0003,
            4.5419,
            5.3703,
            6.7838,
            6.4131,
            5.8104,
            4.6246,
            4.6861,
            4.923,
            5.2155,
            4.7132,
            4.1875,
            4.3925,
            5.5484,
            5.8623,
            5.4063,
            5.187,
            5.9757,
            5.2934,
            4.256,
            4.0153,
            4.6594,
            4.7744,
            4.846,
            4.0804,
            3.9029,
            3.9634,
            4.2669,
            5.0428,
            5.2405,
            4.5119,
            3.9426,
            3.8155,
            4.1342,
            4.3677,
            5.1705,
            4.9942,
            5.4644,
            5.3537,
            5.1302,
            5.4133,
            5.0537,
            4.8258,
            5.3033,
            5.3476,
            5.6633,
            5.5183,
            5.4208,
            4.0491,
            4.2124,
            3.8716,
            3.7716,
            3.2518,
            3.619,
            4.0664,
            4.402,
            4.6901,
            5.7004,
            5.9622,
            6.0213,
            6.2241,
            5.3344,
            4.4877,
            4.44,
            4.867,
            4.8872,
            4.9188,
            4.9559,
            4.7089,
            4.3437,
            4.6419,
            4.9673,
            4.4568,
            4.1225,
            4.5708,
            4.3216,
            4.1293,
            3.9153,
            4.2659,
            3.8349,
            4.3235,
            4.5327,
            4.414,
            4.888,
            5.3825,
            5.1856,
            4.6809,
            4.9477,
            5.4167,
            6.4265,
            5.9723,
            5.4541,
            5.0249,
            5.4624,
            5.2138,
            4.8034,
            4.9845,
            4.4678,
            4.1633,
            4.3606,
            5.4498,
            5.1612,
            5.4254,
            5.0147,
            3.8847,
            3.9258,
            3.8072,
            4.6237,
            5.4215,
            5.6448,
            5.2703,
            4.9815,
            5.8203,
            5.4211,
            4.8921,
            4.674,
            4.7232,
            4.72,
            3.9666,
            3.4915,
            4.1498,
            4.8575,
            5.0455,
            4.5097,
            4.1305,
            3.9533,
            3.6278,
            3.9802,
            4.6384,
            5.1768,
            4.326,
            3.8549,
            3.4109,
            3.5874,
            3.7176,
            3.8322,
            4.0776,
            4.317,
            4.1685,
            3.6791,
            3.2817,
            3.4807,
            3.699,
            3.9963,
            4.0935,
            4.7017,
            5.5406,
            5.5651,
            4.4587,
            3.1444,
            2.9811,
            2.9953,
            3.1124,
            3.2339,
            3.9362,
            4.5433,
            4.4328,
            4.6578,
            4.8238,
            4.9699,
            4.3616,
            4.0401,
            4.0663,
            4.0396,
            4.2671,
            4.2544,
            3.8643,
            3.2609,
            3.7357,
            3.5719,
            3.7882,
            3.8332,
            3.8402,
            3.6208,
            3.6046,
            3.908,
            4.1306,
            4.371,
            4.2787,
            4.406,
            4.4769,
            4.3058,
            4.0565,
            4.2711,
            4.032,
            4.3011,
            4.293,
            4.1195,
            3.552,
            3.5499,
            3.8539,
            4.5399,
            4.9046,
            4.6136,
            4.8271,
            4.9673,
            4.5286,
            3.9833,
            3.6561,
            3.6626,
            4.1219,
            4.1767,
            3.5299,
            3.4874,
            3.0079,
            3.0721,
            2.9776,
            2.8004,
            3.1506,
            3.5323,
            3.6728,
            3.2401,
            3.2654,
            3.4997,
            3.0457,
            3.2548,
            3.5687,
            3.6618,
            3.5194,
            3.9395,
            4.051,
            3.5706,
            3.6503,
            3.3893,
            3.1175,
            3.4565,
            3.5116,
            3.2255,
            3.3362,
            3.6002,
            3.5126,
            3.4057,
            3.3307,
            3.2793,
            3.1542,
            3.2745,
            3.0375,
            3.0917,
            3.3577,
            3.5184,
            3.7205,
            3.4085,
            3.0294,
            3.2044,
            3.3176,
            3.3431,
            3.735,
            4.0305,
            4.1665,
            3.4807,
            3.4976,
            4.2082,
            4.4835,
            4.056,
            3.7751,
            3.4476,
            3.2469,
            3.0546,
            3.5186,
            3.6551,
            3.2738,
            3.2321,
            3.1943,
            3.3336,
            2.9499,
            3.1788,
            3.9579,
            4.3541,
            4.171,
            3.005,
            3.0285,
            3.5356,
            3.7018,
            3.9688,
            3.3517,
            3.0837,
            3.0331,
            3.1634,
            3.4106,
            3.3904,
            3.1465,
            2.8903,
            3.0531,
            3.2729,
            3.6922,
            3.0061,
            3.2105,
            3.5587,
            3.1345,
            3.0515,
            3.0859,
            3.0734,
            3.061,
            3.2673,
            3.3501,
            3.4092,
            3.2873,
            3.0089,
            2.7745,
            2.8508,
            2.7578,
            2.6329,
            2.6636,
            2.6522,
            2.9006,
            2.9588,
            3.1791,
            3.4044,
            3.4351,
            3.5412,
            3.376,
            3.0737,
            3.061,
            3.2479,
            3.4646,
            3.4785,
            3.5572,
            3.6383,
            3.5563,
            3.7469,
            3.5886,
            3.2032,
            3.0385,
            3.1768,
            2.6215,
            2.6371,
            2.491,
            2.5217,
            2.5255,
            3.2255,
            3.1737,
            3.6314,
            3.6666,
            3.4879,
            3.4298,
            3.3372,
            3.1814,
            2.9977,
            3.0943,
            3.1012,
            3.7455,
            3.7501,
            3.6638,
            3.1762,
            3.0415,
            2.9638,
            2.9931,
            3.1087,
            3.1037,
            2.9823,
            3.2707,
            3.3147,
            3.1278,
            3.0077,
            3.131,
            3.1719,
            3.3209,
            2.937,
            2.6876,
            2.7266,
            3.0937,
            3.2188,
            2.823,
            2.8925,
            2.8693,
            2.9459,
            2.8676,
            2.7846,
            2.7618,
            2.822,
            2.7579,
            2.7404,
            2.9561,
            2.8997,
            3.0675,
            3.1098,
            3.1038,
            2.8059,
            2.7106,
            2.7434,
            2.7111,
            2.6865,
            2.6077,
            2.9085,
            2.9741,
            3.2078,
            2.9867,
            2.7962,
            2.9698,
            2.9012,
            3.0562,
            2.935,
            2.8432,
            2.9017,
            2.8792,
            2.6399,
            2.6607,
            2.6181,
            2.4802,
            2.5314,
            2.5984,
            3.052,
            3.036,
            2.7959,
            2.6715,
            2.8159,
            2.9229,
            2.9908,
            2.8448,
            2.7469,
            2.5916,
            2.4886,
            2.6605,
            2.5226,
            2.3989,
            2.5187,
            2.5831,
            2.4561,
            2.7039,
            2.5837,
            2.6445,
            2.5403,
            2.7562,
            2.8176,
            2.9587,
            3.0083,
            2.8855,
            2.8138,
            3.0149,
            3.1564,
            3.1647,
            2.9797,
            2.9864,
            2.9033,
            2.8452,
            2.8805,
            2.8147,
            2.5989,
            2.5306,
            2.4449,
            2.6613,
            2.8344,
            2.6657,
            2.7864,
            2.6601,
            2.5483,
            2.6213,
            2.7227,
            2.6502,
            2.6759,
            2.6537,
            2.7682,
            2.7928,
            2.9302,
            2.9014,
            2.9195,
            3.0749,
            3.0272,
            2.8415,
            2.4956,
            2.35,
            2.4114,
            2.2908,
            2.5252,
            2.4033,
            2.4937,
            2.3656,
            2.585,
            2.599,
            2.5952,
            2.5107,
            2.5037,
            2.5716,
            2.5642,
            2.5845,
            2.4156,
            2.515,
            2.673,
            2.5871,
            2.4555,
            2.48,
            2.5928,
            2.4776,
            2.353,
            2.4579,
            2.4329,
            2.4951,
            2.5124,
            2.285,
            2.5021,
            2.3054,
            2.2469,
            2.4302,
            2.5544,
            2.552,
            2.562,
            2.5953,
            2.5796,
            2.5296,
            2.5355,
            2.5628,
            2.5069,
            2.7133,
            2.5658,
            2.5689,
            2.6286,
            2.7338,
            2.5379,
            2.788,
            2.7739,
            2.3835,
            2.3177,
            2.4184,
            2.3585,
            2.3576,
            2.338,
            2.2156,
            2.327,
            2.4353,
            2.4786,
            2.4138,
            2.1488,
            2.0635,
            2.1354,
            2.0897,
            2.1109,
            2.2191,
            2.1652,
            2.1484,
            1.8929,
            2.0092,
            1.8447,
            2.2456,
            2.2872,
            2.5375,
            2.6098,
            2.588,
            2.6032,
            2.7412,
            2.8806,
            2.3779,
            2.3263,
            2.3215,
            2.2518,
            2.0661,
            2.0279,
            2.0361,
            2.1171,
            2.0697,
            2.1641,
            2.3891,
            2.3233,
            2.2483,
            2.1576,
            2.2326,
            2.3156,
            2.3023,
            2.2893,
            2.2958,
            2.3088,
            2.2461,
            2.27,
            2.3521,
            2.165,
            2.0289,
            2.1384,
            2.1253,
            2.3694,
            2.2722,
            2.2766,
            2.2432,
            2.1847,
            2.3157,
            2.3274,
            2.2171,
            2.2042,
            2.1114,
            2.2827,
            2.3774,
            2.3369,
            2.269,
            2.1998,
            2.2302,
            2.2469,
            2.324,
            2.2725,
            1.9934,
            1.8776,
            1.7615,
            1.6615
          ]
        ]
      }
    },
    "005": {
      "reaction": {
        "0": {
          "x4_code": "(92-U-235(N,F),,RI)",
          "0": {
            "code": [
              "92-U-235",
              [
                "N,F"
              ],
              ",,RI"
            ],
            "type": null,
            "target": "92-U-235",
            "process": "N,F",
            "sf49": ",,RI",
            "sf4": null,
            "sf5": null,
            "sf6": "RI",
            "sf7": null,
            "sf8": null,
            "sf9": null
          },
          "type": null,
          "free_text": " EPICADMIUM RESONANCE INTEGRAL."
        }
      },
      "extra_information": {
        "comment": {
          "0": [
            {
              "x4_code": null,
              "free_txt": [
                ".PRESENTED DATA IS AN EXTRAPOLATION OF THE MEASURED",
                " INTEGRAL BETWEEN 0.5 EV AND 30 KEV WITH THE RESULT",
                " 270.5 BARN. IN THE EXTRAPOLATION THE RESULTS OF",
                " PEREZ ET AL.,NSE,19,203(1974) AND THE EVALUATION",
                " OF SOWERBY ET AL.,ANE,24,323(1974) WERE USED."
              ]
            }
          ]
        },
        "status": {
          "0": [
            {
              "x4_code": null,
              "free_txt": [
                ".DATA TAKEN FROM MAIN REFERENCE."
              ]
            }
          ]
        }
      },
      "common": null,
      "data": {
        "heads": [
          "EN-MIN",
          "EN-MAX",
          "DATA",
          "DATA-ERR"
        ],
        "units": [
          "EV",
          "MEV",
          "B",
          "B"
        ],
        "data": [
          [
            0.5
          ],
          [
            20.0
          ],
          [
            280.0
          ],
          [
            7.0
          ]
        ]
      }
    }
  }
}