{
  "bib": {
    "title": "Neutron total cross-section measurements with the6Li-ZnS(Ag) scintillator (BC702) employing a neutronand noise separation technique",
    "authors": [
      {
        "name": "S.G.Shin"
      },
      {
        "name": "Y.U.Kye"
      },
      {
        "name": "M.H.Cho"
      },
      {
        "name": "W.Namkung"
      },
      {
        "name": "G.N.Kim"
      },
      {
        "name": "M.W.Lee"
      },
      {
        "name": "Y.R.Kang"
      }
    ],
    "institutes": [
      {
        "x4_code": "(3KORPUE)",
        "free_txt": ""
      },
      {
        "x4_code": "(3KORKNU)",
        "free_txt": ""
      },
      {
        "x4_code": "(3KORDRM)",
        "free_txt": ""
      }
    ],
    "references": {
      "0": [
        {
          "x4_code": "(J,KPS,64,1288,2014)",
          "free_txt": [],
          "publication_year": "2014"
        }
      ]
    },
    "facility": {
      "0": [
        {
          "x4_code": "(LINAC,3KORPUE)",
          "free_txt": [
            " Pohang Neutron Facility (PNF)"
          ],
          "facility_type": "(LINAC)",
          "insitute": "(3KORPUE)"
        }
      ]
    },
    "history": [
      {
        "x4_code": "(20190703R)",
        "free_txt": [
          " Total CS data received from S.G.Shin"
        ]
      },
      {
        "x4_code": "(20190709C)",
        "free_txt": [
          " S.C.Yang"
        ]
      }
    ]
  },
  "30845-001": {
    "extra_information": {
      "detector": {
        "0": [
          {
            "x4_code": "(SCIN)",
            "free_txt": [
              " 6Li-ZnS(Ag) scintillator (BC702) with a",
              " diameter 127 mm and a thickness of 6.35 mm"
            ]
          }
        ]
      },
      "err-analys": {
        "0": [
          {
            "x4_code": "(ERR-S)",
            "free_txt": [
              " Statistical error"
            ]
          }
        ]
      },
      "facility": {
        "0": [
          {
            "x4_code": "(LINAC,3KORPUE)",
            "free_txt": [
              " Pohang Neutron Facility (PNF)"
            ]
          }
        ]
      },
      "inc-source": {
        "0": [
          {
            "x4_code": "(PHOTO)",
            "free_txt": [
              " Ta(g,n) photonuclear reaction"
            ]
          }
        ]
      },
      "method": {
        "0": [
          {
            "x4_code": "(TOF,TRN)",
            "free_txt": [
              " 12 m flight path. The Co, Ta and Cd notch",
              " filters were used for the background measurement and",
              " the energy calibration."
            ]
          }
        ]
      },
      "sample": {
        "0": [
          {
            "x4_code": null,
            "free_txt": [
              "Dy metal plates",
              " - purity: >99.9%, size: 10 cm x 10 cm,",
              "  thickness: 0.5 mm (1.5824 atoms/mbarn)"
            ]
          }
        ]
      },
      "status": {
        "0": [
          {
            "x4_code": "(APRVD)",
            "free_txt": [
              " Approved by M.H.Cho (2019-07-12)"
            ]
          }
        ]
      }
    }
  },
  "30845-002": {
    "reaction": {
      "0": {
        "x4_code": "(66-DY-0(N,TOT),,SIG)",
        "0": {
          "code": [
            "66-DY-0",
            [
              "N,TOT"
            ],
            ",,SIG"
          ],
          "type": null,
          "target": "66-DY-0",
          "process": "N,TOT",
          "sf49": ",,SIG",
          "sf4": null,
          "sf5": null,
          "sf6": "SIG",
          "sf7": null,
          "sf8": null,
          "sf9": null
        },
        "type": null,
        "free_text": ""
      }
    },
    "extra_information": {
      "status": {
        "0": [
          {
            "x4_code": "(TABLE)",
            "free_txt": [
              " Fig.7 of J.Korean Phys.Soc.64,1288,2014"
            ]
          }
        ]
      }
    },
    "common": null,
    "data": {
      "heads": [
        "EN",
        "EN-ERR",
        "DATA",
        "ERR-S"
      ],
      "units": [
        "EV",
        "EV",
        "B",
        "B"
      ],
      "data": [
        [
          102.616,
          100.16,
          97.791,
          95.505,
          93.2983,
          91.1671,
          89.1082,
          87.1182,
          85.1941,
          83.3331,
          81.5324,
          79.7895,
          78.1018,
          76.4671,
          74.8833,
          73.3481,
          71.8596,
          70.416,
          69.0155,
          67.6564,
          66.337,
          65.0558,
          63.8114,
          62.6023,
          61.4273,
          60.2851,
          59.1744,
          58.0941,
          57.0432,
          56.0205,
          55.0251,
          54.056,
          53.1122,
          52.193,
          51.2974,
          50.4247,
          49.574,
          48.7447,
          47.9361,
          47.1473,
          46.3779,
          45.6272,
          44.8946,
          44.1795,
          43.4813,
          42.7995,
          42.1337,
          41.4832,
          40.8477,
          40.2267,
          39.6198,
          38.0198,
          36.6479,
          35.3489,
          34.1178,
          32.9499,
          31.841,
          30.7871,
          28.8304,
          27.9213,
          27.0545,
          26.2275,
          25.4378,
          24.6833,
          23.9618,
          23.2715,
          22.6106,
          21.9775,
          21.3706,
          20.7885,
          20.2298,
          19.6934,
          19.1781,
          18.6827,
          18.2062,
          17.7478,
          17.3064,
          16.8813,
          16.4717,
          16.0768,
          15.696,
          15.3285,
          14.9737,
          14.6312,
          14.3003,
          13.9804,
          13.6712,
          13.3721,
          13.0828,
          12.8027,
          12.5315,
          12.2689,
          12.0144,
          11.7678,
          11.5286,
          11.2967,
          11.0718,
          10.8534,
          10.6415,
          10.4357,
          10.2358,
          10.0417,
          9.76058,
          9.4038,
          9.06624,
          8.74653,
          8.44343,
          8.15583,
          7.88267,
          7.62301,
          7.37597,
          7.14075,
          6.9166,
          6.70284,
          6.49884,
          6.30402,
          6.11782,
          5.93976,
          5.76936,
          5.60618,
          5.44984,
          5.29994,
          5.15614,
          5.01812,
          4.88556,
          4.75819,
          4.63574,
          4.51795,
          4.4046,
          4.29546,
          4.19032,
          4.089,
          3.99131,
          3.89708,
          3.80615,
          3.71836,
          3.63358,
          3.55166,
          3.47248,
          3.39592,
          3.32187,
          3.25021,
          3.18085,
          3.11368,
          3.04862,
          2.98557,
          2.92446,
          2.86521,
          2.80774,
          2.75198,
          2.69787,
          2.64534,
          2.59433,
          2.54478,
          2.49663,
          2.44984,
          2.40435,
          2.36012,
          2.3171,
          2.27524,
          2.2345,
          2.19485,
          2.15625,
          2.11866,
          2.08204,
          2.04636,
          2.01159,
          1.9777,
          1.94466,
          1.91244,
          1.88102,
          1.85036,
          1.82044,
          1.79125,
          1.76275,
          1.73493,
          1.70776,
          1.68122,
          1.6553,
          1.62998,
          1.60522,
          1.58103,
          1.55739,
          1.53426,
          1.51165,
          1.48954,
          1.46791,
          1.44674,
          1.42603,
          1.40576,
          1.38592,
          1.3665,
          1.34748,
          1.32886,
          1.31062,
          1.29275,
          1.27525,
          1.2581,
          1.24129,
          1.22482,
          1.20867,
          1.19285,
          1.17732,
          1.16211,
          1.14718,
          1.13254,
          1.11818,
          1.10409,
          1.09026,
          1.07669,
          1.06338,
          1.05031,
          1.03747,
          1.02488,
          1.01251,
          1.00036,
          0.99437,
          0.97093,
          0.94832,
          0.92648,
          0.90539,
          0.88501,
          0.86531,
          0.84627,
          0.82784,
          0.81001,
          0.79275,
          0.77604,
          0.75984,
          0.74415,
          0.72894,
          0.7142,
          0.69989,
          0.68602,
          0.67254,
          0.65947,
          0.64677,
          0.63443,
          0.62245,
          0.6108,
          0.59947,
          0.58846,
          0.57774,
          0.56732,
          0.55718,
          0.5473,
          0.53769,
          0.52833,
          0.51921,
          0.51032,
          0.50166,
          0.49322,
          0.48499,
          0.47696,
          0.46913,
          0.4615,
          0.45404,
          0.44677,
          0.43967,
          0.43274,
          0.42597,
          0.41936,
          0.4129,
          0.40659,
          0.40042,
          0.3944,
          0.3885,
          0.38274,
          0.37711,
          0.3716,
          0.3662,
          0.36093,
          0.35577,
          0.35072,
          0.34577,
          0.34093,
          0.33619,
          0.33155,
          0.327,
          0.32255,
          0.31819,
          0.31391,
          0.30972,
          0.30562,
          0.30159,
          0.29764,
          0.29378,
          0.28998,
          0.28626,
          0.28261,
          0.27903,
          0.27552,
          0.27207,
          0.26869,
          0.26537,
          0.26211,
          0.25891,
          0.25577,
          0.25268,
          0.24966,
          0.24668,
          0.24376,
          0.24089,
          0.23807,
          0.2353,
          0.23258,
          0.2299,
          0.22727,
          0.22469,
          0.22215,
          0.21965,
          0.21719,
          0.21478,
          0.2124,
          0.21007,
          0.20777,
          0.20551,
          0.20328,
          0.2011,
          0.19894,
          0.19683,
          0.19474,
          0.19269,
          0.19067,
          0.18868,
          0.18673,
          0.1848,
          0.1829,
          0.18104,
          0.1792,
          0.17738,
          0.1756,
          0.17384,
          0.17211,
          0.17041,
          0.16873,
          0.16707,
          0.16544,
          0.16383,
          0.16225,
          0.16069,
          0.15915,
          0.15763,
          0.15614,
          0.15466,
          0.15321,
          0.15178,
          0.15037,
          0.14897,
          0.1476,
          0.14624,
          0.14491,
          0.14359,
          0.14229,
          0.141,
          0.13974,
          0.13849,
          0.13726,
          0.13604,
          0.13484,
          0.13366,
          0.13249,
          0.13134,
          0.1302,
          0.12908,
          0.12797,
          0.12688,
          0.12579,
          0.12473,
          0.12368,
          0.12264,
          0.12161,
          0.12059,
          0.11959,
          0.1186,
          0.11763,
          0.11666,
          0.11571,
          0.11477,
          0.11384,
          0.11292,
          0.11201,
          0.11112,
          0.11023,
          0.10935,
          0.10849,
          0.10763,
          0.10679,
          0.10596,
          0.10513,
          0.10432,
          0.10351,
          0.10271,
          0.10193,
          0.10115,
          0.10038,
          0.09962,
          0.09886,
          0.09812,
          0.09738,
          0.09666,
          0.09594,
          0.09523,
          0.09452,
          0.09383,
          0.09314,
          0.09246,
          0.09179,
          0.09112,
          0.09046,
          0.08981,
          0.08917,
          0.08853,
          0.0879,
          0.08728,
          0.08666,
          0.08605,
          0.08545,
          0.08485,
          0.08426,
          0.08367,
          0.08309,
          0.08252,
          0.08195,
          0.08139,
          0.08083,
          0.08028,
          0.07974,
          0.0792,
          0.07867,
          0.07814,
          0.07762,
          0.0771,
          0.07659,
          0.07608,
          0.07558,
          0.07508,
          0.07459,
          0.0741,
          0.07361,
          0.07314,
          0.07266,
          0.07219,
          0.07173,
          0.07127,
          0.07081,
          0.07036,
          0.06992,
          0.06947,
          0.06903,
          0.0686,
          0.06817,
          0.06774,
          0.06732,
          0.0669,
          0.06649,
          0.06608,
          0.06567,
          0.06527,
          0.06487,
          0.06447,
          0.06408,
          0.06369,
          0.06331,
          0.06293,
          0.06255,
          0.06217,
          0.0618,
          0.06143,
          0.06107,
          0.06071,
          0.06035,
          0.05999,
          0.05964,
          0.05929,
          0.05895,
          0.0586,
          0.05826,
          0.05793,
          0.05759,
          0.05726,
          0.05693,
          0.05661,
          0.05629,
          0.05597,
          0.05565,
          0.05533,
          0.05502,
          0.05471,
          0.05441,
          0.0541,
          0.0538,
          0.0535,
          0.05321,
          0.05291,
          0.05262,
          0.05233,
          0.05204,
          0.05176,
          0.05148,
          0.0512,
          0.05092,
          0.05064,
          0.05037,
          0.0501,
          0.04983,
          0.04956,
          0.0493,
          0.04904,
          0.04878,
          0.04852,
          0.04826,
          0.04801,
          0.04776,
          0.04751,
          0.04726,
          0.04701,
          0.04677,
          0.04653,
          0.04629,
          0.04605,
          0.04581,
          0.04557,
          0.04534,
          0.04511,
          0.04488,
          0.04465,
          0.04443,
          0.0442,
          0.04398,
          0.04376,
          0.04354,
          0.04332,
          0.0431,
          0.04289,
          0.04268,
          0.04247,
          0.04226,
          0.04205,
          0.04184,
          0.04164,
          0.04143,
          0.04123,
          0.04103,
          0.04083,
          0.04063,
          0.04044,
          0.04024,
          0.04005,
          0.03986,
          0.03966,
          0.03948,
          0.03929,
          0.0391,
          0.03892,
          0.03873,
          0.03855,
          0.03837,
          0.03819,
          0.03801,
          0.03783,
          0.03765,
          0.03748,
          0.0373,
          0.03713,
          0.03696,
          0.03679,
          0.03662,
          0.03645,
          0.03629,
          0.03612,
          0.03596,
          0.03579,
          0.03563,
          0.03547,
          0.03531,
          0.03515,
          0.03499,
          0.03483,
          0.03468,
          0.03452,
          0.03437,
          0.03422,
          0.03406,
          0.03391,
          0.03376,
          0.03362,
          0.03347,
          0.03332,
          0.03317,
          0.03303,
          0.03289,
          0.03274,
          0.0326,
          0.03246,
          0.03232,
          0.03218,
          0.03204,
          0.0319,
          0.03177,
          0.03163,
          0.0315,
          0.03136,
          0.03123,
          0.0311,
          0.03097,
          0.03083,
          0.0307,
          0.03058,
          0.03045,
          0.03032,
          0.03019,
          0.03007,
          0.02994,
          0.02982,
          0.02969,
          0.02957,
          0.02945,
          0.02933,
          0.02921,
          0.02909,
          0.02897,
          0.02885,
          0.02873,
          0.02862,
          0.0285,
          0.02839,
          0.02827,
          0.02816,
          0.02804,
          0.02793,
          0.02782,
          0.02771
        ],
        [
          3.7934,
          3.65861,
          3.53015,
          3.40764,
          3.29075,
          3.17916,
          3.07256,
          2.97069,
          2.87329,
          2.7801,
          2.69091,
          2.60551,
          2.52369,
          2.44526,
          2.37007,
          2.29793,
          2.22869,
          2.16222,
          2.09837,
          2.03702,
          1.97804,
          1.92132,
          1.86676,
          1.81425,
          1.76369,
          1.71501,
          1.6681,
          1.62289,
          1.5793,
          1.53727,
          1.49672,
          1.45759,
          1.41981,
          1.38333,
          1.3481,
          1.31405,
          1.28114,
          1.24933,
          1.21857,
          1.18881,
          1.16001,
          1.13214,
          1.10516,
          1.07903,
          1.05372,
          1.0292,
          1.00544,
          0.9824,
          0.96007,
          0.93841,
          0.9174,
          1.58387,
          1.49924,
          1.42055,
          1.34729,
          1.27898,
          1.21522,
          1.15564,
          1.0477,
          0.99875,
          0.95281,
          0.90966,
          0.86907,
          0.83087,
          0.79489,
          0.76095,
          0.72893,
          0.69868,
          0.67008,
          0.64303,
          0.61742,
          0.59315,
          0.57015,
          0.54832,
          0.52759,
          0.5079,
          0.48918,
          0.47137,
          0.45441,
          0.43826,
          0.42288,
          0.4082,
          0.3942,
          0.38083,
          0.36806,
          0.35586,
          0.34419,
          0.33303,
          0.32235,
          0.31212,
          0.30233,
          0.29293,
          0.28393,
          0.27529,
          0.267,
          0.25904,
          0.25139,
          0.24405,
          0.23699,
          0.23019,
          0.22366,
          0.21737,
          0.38494,
          0.36412,
          0.34477,
          0.32677,
          0.31,
          0.29437,
          0.27977,
          0.26612,
          0.25335,
          0.24138,
          0.23016,
          0.21963,
          0.20973,
          0.20041,
          0.19164,
          0.18338,
          0.17559,
          0.16823,
          0.16128,
          0.15471,
          0.14849,
          0.1426,
          0.13702,
          0.13173,
          0.1267,
          0.12193,
          0.1174,
          0.11309,
          0.10899,
          0.10508,
          0.10136,
          0.09782,
          0.09444,
          0.09121,
          0.08813,
          0.08518,
          0.08237,
          0.07968,
          0.07711,
          0.07464,
          0.07228,
          0.07002,
          0.06785,
          0.06577,
          0.06378,
          0.06187,
          0.06003,
          0.05826,
          0.05656,
          0.05493,
          0.05336,
          0.05185,
          0.0504,
          0.049,
          0.04766,
          0.04636,
          0.04511,
          0.0439,
          0.04274,
          0.04161,
          0.04053,
          0.03948,
          0.03847,
          0.0375,
          0.03655,
          0.03564,
          0.03476,
          0.03391,
          0.03308,
          0.03228,
          0.03151,
          0.03076,
          0.03004,
          0.02934,
          0.02866,
          0.028,
          0.02736,
          0.02674,
          0.02614,
          0.02556,
          0.02499,
          0.02444,
          0.02391,
          0.02339,
          0.02289,
          0.0224,
          0.02193,
          0.02147,
          0.02102,
          0.02058,
          0.02016,
          0.01975,
          0.01935,
          0.01896,
          0.01858,
          0.01821,
          0.01785,
          0.0175,
          0.01716,
          0.01683,
          0.0165,
          0.01619,
          0.01588,
          0.01558,
          0.01529,
          0.015,
          0.01473,
          0.01445,
          0.01419,
          0.01393,
          0.01368,
          0.01344,
          0.0132,
          0.01296,
          0.02466,
          0.0238,
          0.02298,
          0.02219,
          0.02145,
          0.02073,
          0.02005,
          0.01939,
          0.01877,
          0.01817,
          0.0176,
          0.01705,
          0.01652,
          0.01601,
          0.01553,
          0.01506,
          0.01462,
          0.01419,
          0.01378,
          0.01338,
          0.013,
          0.01263,
          0.01228,
          0.01194,
          0.01161,
          0.01129,
          0.01099,
          0.0107,
          0.01041,
          0.01014,
          0.00988,
          0.00962,
          0.00937,
          0.00914,
          0.00891,
          0.00869,
          0.00847,
          0.00826,
          0.00806,
          0.00787,
          0.00768,
          0.0075,
          0.00732,
          0.00715,
          0.00699,
          0.00683,
          0.00667,
          0.00652,
          0.00637,
          0.00623,
          0.00609,
          0.00596,
          0.00583,
          0.0057,
          0.00558,
          0.00546,
          0.00535,
          0.00524,
          0.00513,
          0.00502,
          0.00492,
          0.00482,
          0.00472,
          0.00462,
          0.00453,
          0.00444,
          0.00435,
          0.00427,
          0.00419,
          0.0041,
          0.00403,
          0.00395,
          0.00387,
          0.0038,
          0.00373,
          0.00366,
          0.00359,
          0.00353,
          0.00346,
          0.0034,
          0.00334,
          0.00328,
          0.00322,
          0.00316,
          0.00311,
          0.00305,
          0.003,
          0.00295,
          0.0029,
          0.00285,
          0.0028,
          0.00275,
          0.00271,
          0.00266,
          0.00262,
          0.00257,
          0.00253,
          0.00249,
          0.00245,
          0.00241,
          0.00237,
          0.00233,
          0.0023,
          0.00226,
          0.00223,
          0.00219,
          0.00216,
          0.00212,
          0.00209,
          0.00206,
          0.00203,
          0.002,
          0.00197,
          0.00194,
          0.00191,
          0.00188,
          0.00185,
          0.00182,
          0.0018,
          0.00177,
          0.00175,
          0.00172,
          0.0017,
          0.00167,
          0.00165,
          0.00163,
          0.0016,
          0.00158,
          0.00156,
          0.00154,
          0.00152,
          0.0015,
          0.00147,
          0.00145,
          0.00143,
          0.00142,
          0.0014,
          0.00138,
          0.00136,
          0.00134,
          0.00132,
          0.00131,
          0.00129,
          0.00127,
          0.00126,
          0.00124,
          0.00122,
          0.00121,
          0.00119,
          0.00118,
          0.00116,
          0.00115,
          0.00113,
          0.00112,
          0.00111,
          0.00109,
          0.00108,
          0.00107,
          0.00105,
          0.00104,
          0.00103,
          0.00102,
          0.001,
          0.000992054,
          0.000980294,
          0.000968721,
          0.000957331,
          0.00094612,
          0.000935085,
          0.000924223,
          0.00091353,
          0.000903003,
          0.000892639,
          0.000882434,
          0.000872385,
          0.00086249,
          0.000852746,
          0.000843149,
          0.000833697,
          0.000824387,
          0.000815216,
          0.000806183,
          0.000797283,
          0.000788516,
          0.000779878,
          0.000771366,
          0.00076298,
          0.000754716,
          0.000746572,
          0.000738545,
          0.000730635,
          0.000722838,
          0.000715153,
          0.000707578,
          0.00070011,
          0.000692749,
          0.000685491,
          0.000678335,
          0.000671279,
          0.000664322,
          0.000657462,
          0.000650697,
          0.000644025,
          0.000637446,
          0.000630956,
          0.000624555,
          0.000618242,
          0.000612014,
          0.00060587,
          0.00059981,
          0.00059383,
          0.000587931,
          0.000582111,
          0.000576368,
          0.000570701,
          0.000565109,
          0.00055959,
          0.000554144,
          0.000548769,
          0.000543464,
          0.000538229,
          0.000533061,
          0.000527959,
          0.000522923,
          0.000517952,
          0.000513045,
          0.000508199,
          0.000503416,
          0.000498693,
          0.000494029,
          0.000489424,
          0.000484877,
          0.000480387,
          0.000475952,
          0.000471573,
          0.000467248,
          0.000462976,
          0.000458756,
          0.000454589,
          0.000450472,
          0.000446406,
          0.000442388,
          0.00043842,
          0.000434499,
          0.000430626,
          0.000426799,
          0.000423017,
          0.000419281,
          0.000415589,
          0.000411941,
          0.000408337,
          0.000404774,
          0.000401253,
          0.000397774,
          0.000394335,
          0.000390936,
          0.000387577,
          0.000384256,
          0.000380974,
          0.00037773,
          0.000374522,
          0.000371352,
          0.000368217,
          0.000365118,
          0.000362054,
          0.000359025,
          0.00035603,
          0.000353069,
          0.000350141,
          0.000347245,
          0.000344382,
          0.000341551,
          0.00033875,
          0.000335981,
          0.000333243,
          0.000330534,
          0.000327855,
          0.000325205,
          0.000322585,
          0.000319992,
          0.000317428,
          0.000314891,
          0.000312382,
          0.0003099,
          0.000307444,
          0.000305014,
          0.000302611,
          0.000300232,
          0.000297879,
          0.000295551,
          0.000293248,
          0.000290968,
          0.000288713,
          0.000286481,
          0.000284272,
          0.000282087,
          0.000279924,
          0.000277783,
          0.000275664,
          0.000273567,
          0.000271492,
          0.000269438,
          0.000267405,
          0.000265393,
          0.000263401,
          0.000261429,
          0.000259477,
          0.000257544,
          0.000255632,
          0.000253738,
          0.000251863,
          0.000250007,
          0.000248169,
          0.00024635,
          0.000244549,
          0.000242765,
          0.000240999,
          0.00023925,
          0.000237518,
          0.000235804,
          0.000234106,
          0.000232424,
          0.000230759,
          0.00022911,
          0.000227477,
          0.000225859,
          0.000224257,
          0.000222671,
          0.000221099,
          0.000219543,
          0.000218001,
          0.000216474,
          0.000214961,
          0.000213463,
          0.000211979,
          0.000210508,
          0.000209052,
          0.000207609,
          0.000206179,
          0.000204763,
          0.00020336,
          0.00020197,
          0.000200593,
          0.000199228,
          0.000197876,
          0.000196537,
          0.000195209,
          0.000193894,
          0.000192591,
          0.000191299,
          0.000190019,
          0.000188751,
          0.000187494,
          0.000186249,
          0.000185015,
          0.000183792,
          0.000182579,
          0.000181378,
          0.000180187,
          0.000179007,
          0.000177837,
          0.000176677,
          0.000175528,
          0.000174389,
          0.00017326,
          0.000172141,
          0.000171031,
          0.000169931,
          0.000168841,
          0.00016776,
          0.000166689,
          0.000165627,
          0.000164574,
          0.00016353,
          0.000162495,
          0.000161469,
          0.000160451,
          0.000159443,
          0.000158442,
          0.000157451,
          0.000156467,
          0.000155492,
          0.000154526,
          0.000153567,
          0.000152617,
          0.000151674,
          0.000150739,
          0.000149812,
          0.000148893,
          0.000147981,
          0.000147077,
          0.000146181,
          0.000145292,
          0.00014441,
          0.000143535,
          0.000142668,
          0.000141807,
          0.000140954,
          0.000140108,
          0.000139268,
          0.000138436,
          0.00013761,
          0.00013679,
          0.000135978,
          0.000135171,
          0.000134372,
          0.000133579,
          0.000132792,
          0.000132011,
          0.000131237,
          0.000130468,
          0.000129706,
          0.00012895,
          0.0001282,
          0.000127455,
          0.000126717,
          0.000125984
        ],
        [
          88.6217,
          60.9331,
          67.9268,
          87.9771,
          89.8198,
          79.7013,
          59.2371,
          100.107,
          65.2937,
          90.1853,
          59.7582,
          79.003,
          94.1673,
          79.4396,
          121.244,
          230.289,
          548.841,
          538.746,
          267.312,
          169.703,
          142.912,
          108.998,
          87.2308,
          85.7522,
          102.652,
          150.552,
          248.171,
          137.481,
          127.652,
          181.659,
          116.114,
          96.3213,
          59.2472,
          123.781,
          134.685,
          94.3173,
          81.2132,
          62.3675,
          63.0965,
          52.435,
          41.4175,
          119.027,
          112.532,
          89.8611,
          119.008,
          94.3935,
          55.2717,
          40.0719,
          44.5955,
          38.6069,
          63.2982,
          155.332,
          111.17,
          134.428,
          49.868,
          44.952,
          52.8467,
          36.9645,
          75.2525,
          47.982,
          32.5308,
          47.0983,
          56.9873,
          46.8978,
          57.092,
          58.0961,
          44.214,
          56.5876,
          44.2123,
          133.065,
          206.132,
          118.418,
          83.2924,
          188.306,
          175.711,
          82.7439,
          84.7404,
          268.437,
          633.614,
          601.641,
          208.007,
          108.74,
          92.3361,
          130.547,
          312.602,
          167.679,
          85.9426,
          81.6076,
          60.648,
          59.3657,
          68.4784,
          54.9479,
          54.724,
          48.8519,
          50.489,
          67.9826,
          82.0856,
          111.306,
          244.071,
          489.15,
          270.474,
          131.18,
          83.909,
          54.5898,
          66.9061,
          55.5241,
          60.8606,
          66.7926,
          104.836,
          134.319,
          99.9767,
          91.1138,
          95.4468,
          124.612,
          151.674,
          212.445,
          290.45,
          499.329,
          978.737,
          1978.35,
          3108.02,
          3104.15,
          1569.88,
          817.057,
          501.379,
          350.86,
          284.415,
          265.278,
          427.036,
          551.711,
          316.142,
          202.46,
          184.241,
          212.235,
          339.831,
          726.112,
          667.371,
          354.089,
          217.002,
          168.959,
          129.611,
          120.672,
          123.98,
          121.101,
          124.884,
          123.285,
          151.156,
          167.592,
          262.182,
          437.604,
          512.89,
          383.309,
          253.945,
          186.824,
          153.132,
          141.886,
          139.152,
          120.499,
          124.52,
          131.108,
          124.849,
          126.827,
          146.806,
          147.433,
          154.602,
          153.263,
          182.776,
          211.721,
          245.389,
          286.219,
          370.025,
          494.74,
          736.839,
          1075.84,
          1518.83,
          1892.12,
          2029.07,
          1952.82,
          1511.48,
          1062.66,
          789.092,
          576.519,
          463.857,
          389.715,
          331.404,
          290.436,
          272.92,
          239.233,
          224.182,
          222.626,
          202.892,
          208.133,
          197.246,
          189.109,
          177.878,
          187.259,
          172.851,
          167.182,
          177.906,
          171.349,
          166.153,
          162.141,
          153.644,
          167.414,
          165.96,
          166.997,
          166.542,
          152.528,
          169.507,
          171.411,
          158.639,
          166.584,
          159.688,
          168.518,
          168.681,
          176.663,
          174.291,
          160.978,
          158.893,
          169.433,
          168.826,
          164.772,
          174.579,
          172.746,
          171.321,
          172.82,
          186.902,
          183.996,
          178.488,
          183.684,
          194.466,
          193.391,
          194.334,
          185.142,
          199.287,
          188.0,
          203.66,
          200.972,
          205.711,
          206.108,
          212.677,
          217.239,
          215.283,
          215.675,
          215.269,
          227.451,
          224.129,
          227.87,
          234.437,
          231.342,
          239.38,
          230.086,
          233.37,
          246.214,
          243.847,
          246.875,
          238.289,
          251.072,
          257.1,
          248.826,
          254.23,
          251.612,
          255.418,
          254.207,
          271.212,
          268.706,
          270.733,
          283.718,
          282.414,
          286.144,
          282.535,
          291.352,
          285.68,
          293.907,
          293.845,
          299.418,
          301.869,
          299.616,
          301.476,
          304.594,
          297.25,
          309.816,
          311.035,
          304.397,
          310.34,
          326.322,
          330.996,
          321.18,
          322.359,
          318.799,
          334.392,
          328.675,
          347.424,
          336.468,
          341.419,
          350.238,
          341.257,
          337.857,
          353.596,
          349.207,
          354.35,
          352.868,
          364.232,
          372.641,
          381.881,
          353.442,
          355.64,
          371.989,
          370.635,
          383.826,
          375.351,
          375.25,
          381.618,
          376.385,
          385.525,
          382.832,
          391.495,
          388.024,
          389.052,
          397.397,
          397.2,
          396.41,
          386.982,
          401.779,
          396.615,
          417.161,
          415.46,
          416.534,
          414.704,
          409.778,
          410.074,
          421.855,
          417.675,
          419.735,
          423.899,
          436.117,
          428.629,
          430.295,
          431.844,
          439.456,
          434.656,
          442.737,
          446.82,
          442.69,
          445.825,
          452.558,
          457.493,
          451.685,
          452.106,
          456.681,
          459.864,
          459.119,
          466.392,
          460.879,
          466.173,
          466.534,
          469.973,
          467.417,
          472.513,
          471.83,
          468.958,
          475.739,
          475.45,
          482.639,
          480.893,
          478.928,
          486.32,
          492.842,
          491.168,
          501.872,
          498.94,
          491.782,
          504.82,
          503.513,
          511.373,
          507.746,
          504.798,
          510.515,
          509.821,
          504.9,
          516.532,
          518.387,
          523.235,
          523.219,
          524.106,
          524.076,
          534.613,
          531.664,
          535.806,
          530.914,
          524.887,
          538.972,
          540.973,
          537.223,
          539.238,
          538.509,
          547.651,
          554.655,
          551.723,
          555.229,
          550.325,
          554.439,
          562.872,
          568.83,
          564.551,
          572.902,
          564.508,
          570.322,
          563.288,
          571.627,
          573.571,
          576.405,
          576.165,
          581.302,
          580.115,
          585.053,
          587.469,
          590.91,
          595.688,
          591.286,
          606.205,
          601.902,
          599.891,
          601.936,
          596.872,
          604.848,
          607.554,
          616.578,
          609.215,
          612.151,
          606.463,
          611.626,
          615.838,
          623.345,
          618.819,
          629.888,
          634.771,
          626.307,
          632.498,
          639.07,
          633.139,
          649.291,
          644.799,
          642.181,
          648.43,
          653.042,
          651.913,
          651.357,
          654.989,
          652.5,
          662.794,
          664.004,
          670.695,
          673.901,
          667.309,
          670.782,
          671.543,
          668.207,
          674.443,
          684.923,
          679.145,
          672.909,
          680.252,
          687.789,
          692.043,
          700.807,
          685.122,
          693.075,
          701.138,
          695.052,
          699.55,
          706.493,
          707.82,
          712.499,
          708.897,
          711.225,
          708.723,
          712.069,
          712.129,
          722.326,
          722.735,
          716.374,
          722.314,
          725.121,
          729.249,
          739.978,
          728.471,
          733.831,
          736.541,
          741.886,
          743.408,
          739.769,
          745.99,
          750.418,
          748.333,
          752.008,
          761.149,
          754.528,
          754.62,
          760.998,
          767.367,
          767.077,
          760.804,
          763.511,
          777.005,
          767.655,
          763.323,
          777.729,
          780.485,
          773.674,
          777.199,
          798.149,
          790.42,
          790.629,
          789.727,
          796.23,
          789.779,
          807.573,
          800.538,
          797.07,
          799.218,
          811.534,
          814.833,
          804.975,
          810.744,
          819.605,
          817.585,
          814.948,
          826.909,
          820.336,
          822.576,
          823.028,
          843.26,
          836.805,
          831.014,
          842.244,
          837.875,
          837.147,
          842.144,
          847.225,
          841.817,
          846.65,
          849.347,
          850.581,
          852.421,
          872.134,
          848.643,
          853.299,
          854.546,
          858.157,
          867.524,
          866.644,
          870.451,
          865.707,
          865.253,
          880.458,
          884.318,
          870.312,
          884.745,
          877.497,
          880.457,
          885.402,
          903.954,
          904.126,
          913.786,
          904.047,
          894.74,
          907.094,
          901.595,
          898.763,
          923.221,
          907.593,
          902.915,
          915.525,
          922.074,
          929.739,
          923.033,
          914.099,
          919.135,
          937.179,
          925.091,
          941.068,
          929.188,
          937.478,
          929.54,
          944.394,
          935.24,
          940.546,
          954.058,
          949.017,
          954.274,
          960.075,
          953.234,
          963.086,
          960.633,
          960.983,
          963.307,
          959.685,
          978.621,
          984.835,
          973.393,
          978.785,
          981.751,
          964.313,
          985.058,
          973.281,
          975.027,
          982.074,
          1002.35,
          996.039,
          1008.55,
          1003.91,
          1003.79,
          1013.73,
          1011.69,
          1018.01,
          1005.18,
          1015.67,
          1030.13,
          1029.07,
          1023.36,
          1006.44,
          1014.85,
          1024.88,
          1027.12,
          1035.9,
          1043.28,
          1024.84,
          1037.19,
          1045.26,
          1048.16,
          1058.74,
          1052.82
        ],
        [
          8.23375,
          8.19029,
          8.23552,
          8.33932,
          8.37068,
          8.36765,
          8.39899,
          8.39137,
          8.50247,
          8.44829,
          8.43444,
          8.49057,
          8.51245,
          8.62567,
          8.72499,
          9.27103,
          10.8507,
          10.8562,
          9.45638,
          9.0901,
          8.9264,
          8.87877,
          8.76026,
          8.86613,
          8.88439,
          9.11451,
          9.49182,
          9.17081,
          9.07562,
          9.32204,
          9.10664,
          9.03528,
          8.97356,
          9.18623,
          9.22721,
          9.14146,
          9.01349,
          9.02864,
          9.04993,
          9.0257,
          9.03088,
          9.33099,
          9.32587,
          9.23726,
          9.39729,
          9.32294,
          9.21108,
          9.15372,
          9.25279,
          9.18732,
          9.20179,
          6.15896,
          6.06684,
          6.13834,
          6.00524,
          5.99613,
          6.01238,
          6.04208,
          6.16603,
          6.13882,
          6.16084,
          6.14026,
          6.21031,
          6.21152,
          6.25772,
          6.23454,
          6.25898,
          6.28352,
          6.34109,
          6.53856,
          6.86045,
          6.57034,
          6.48069,
          6.82137,
          6.7831,
          6.56693,
          6.5644,
          7.18556,
          8.66458,
          8.59316,
          7.00869,
          6.74811,
          6.69111,
          6.82502,
          7.46898,
          6.93321,
          6.74639,
          6.73988,
          6.71186,
          6.7161,
          6.71183,
          6.74155,
          6.78372,
          6.77127,
          6.79036,
          6.7933,
          6.87584,
          7.03841,
          7.47459,
          8.45257,
          7.56465,
          7.1082,
          5.00982,
          4.96412,
          4.98223,
          4.99856,
          5.03597,
          5.04108,
          5.13165,
          5.22278,
          5.1508,
          5.17457,
          5.20074,
          5.26648,
          5.36744,
          5.52687,
          5.79447,
          6.43152,
          8.62339,
          17.647,
          42.4466,
          42.4475,
          13.1282,
          7.86182,
          6.5777,
          6.1099,
          5.9154,
          5.85977,
          6.36307,
          6.82168,
          6.05719,
          5.77099,
          5.718,
          5.78348,
          6.21751,
          7.63982,
          7.40785,
          6.27238,
          5.85607,
          5.74683,
          5.7,
          5.7018,
          5.71208,
          5.68107,
          5.70124,
          5.73718,
          5.80719,
          5.88845,
          6.15075,
          6.71561,
          7.04654,
          6.56935,
          6.15845,
          6.02168,
          5.9186,
          5.93191,
          5.90715,
          5.88573,
          5.89593,
          5.89108,
          5.92947,
          5.97127,
          5.99065,
          6.03355,
          6.0414,
          6.08637,
          6.15942,
          6.22586,
          6.34718,
          6.5215,
          6.79371,
          7.26807,
          8.37781,
          10.3929,
          14.1683,
          18.8007,
          20.7729,
          19.6369,
          14.1601,
          10.3837,
          8.74085,
          7.76463,
          7.26458,
          7.00575,
          6.82266,
          6.69489,
          6.63524,
          6.57779,
          6.51306,
          6.55382,
          6.5067,
          6.48468,
          6.4707,
          6.45105,
          6.42122,
          6.45811,
          6.41891,
          6.4654,
          6.46722,
          6.4432,
          6.46858,
          6.45258,
          6.47526,
          6.49152,
          6.47057,
          6.48118,
          6.49677,
          6.50068,
          6.52455,
          6.56392,
          6.55042,
          6.60454,
          6.56373,
          6.58825,
          6.64078,
          6.59909,
          4.70003,
          4.7094,
          4.7214,
          4.72692,
          4.74282,
          4.75151,
          4.77596,
          4.78571,
          4.80429,
          4.83392,
          4.83508,
          4.84739,
          4.85677,
          4.88687,
          4.8987,
          4.92508,
          4.94846,
          4.9541,
          4.9646,
          4.0,
          4.97685,
          4.99267,
          5.0014,
          5.02676,
          5.03627,
          5.07731,
          5.10351,
          5.09821,
          5.08882,
          5.12803,
          5.1433,
          5.14049,
          5.18833,
          5.18287,
          5.18153,
          5.18336,
          5.20093,
          5.21838,
          5.22705,
          5.25106,
          5.26894,
          5.24256,
          5.28642,
          5.31708,
          5.30938,
          5.3503,
          5.35438,
          5.35586,
          5.38904,
          5.4029,
          5.42056,
          5.45454,
          5.48709,
          5.50827,
          5.5116,
          5.55799,
          5.5466,
          5.58266,
          5.60453,
          5.6289,
          5.64944,
          5.6873,
          5.68352,
          5.69049,
          5.7015,
          5.7093,
          5.77711,
          5.75189,
          5.79786,
          5.78745,
          5.80708,
          5.81924,
          5.81474,
          5.80973,
          5.85136,
          5.84991,
          5.88194,
          5.88051,
          5.88917,
          5.88296,
          5.87899,
          5.89871,
          5.9331,
          5.89217,
          5.90721,
          5.88317,
          5.94203,
          5.94517,
          5.91828,
          5.88739,
          5.91142,
          5.92558,
          5.8932,
          5.91004,
          5.88764,
          5.88962,
          5.87284,
          5.85495,
          5.83979,
          5.81503,
          5.82285,
          5.81137,
          5.80303,
          5.79311,
          5.75544,
          5.72402,
          5.69001,
          5.72091,
          5.67765,
          5.66869,
          5.65947,
          5.60355,
          5.59664,
          5.56398,
          5.55239,
          5.52758,
          5.51146,
          5.46572,
          5.44125,
          5.43286,
          5.39474,
          5.36061,
          5.33984,
          5.3205,
          5.26341,
          5.27117,
          5.22051,
          5.22284,
          5.16433,
          5.15732,
          5.11958,
          5.08618,
          5.07396,
          5.04443,
          5.0117,
          4.99398,
          4.95916,
          4.91735,
          4.89808,
          4.88486,
          4.86438,
          4.8373,
          4.81558,
          4.77738,
          4.74864,
          4.72252,
          4.71056,
          4.7051,
          4.66085,
          4.633,
          4.62259,
          4.5933,
          4.59231,
          4.57153,
          4.548,
          4.50841,
          4.49104,
          4.49007,
          4.46739,
          4.43491,
          4.42454,
          4.41625,
          4.38765,
          4.35913,
          4.35782,
          4.36032,
          4.3292,
          4.32393,
          4.30324,
          4.2848,
          4.29249,
          4.26821,
          4.2552,
          4.23973,
          4.20857,
          4.20795,
          4.2036,
          4.18181,
          4.18148,
          4.16354,
          4.15975,
          4.1636,
          4.14155,
          4.13048,
          4.11972,
          4.10594,
          4.12118,
          4.11361,
          4.10109,
          4.10977,
          4.07537,
          4.08555,
          4.06349,
          4.0713,
          4.05426,
          4.05295,
          4.04176,
          4.05356,
          4.04244,
          4.04574,
          4.04289,
          4.03953,
          4.0354,
          4.03517,
          4.05224,
          4.04165,
          4.03058,
          4.03811,
          4.0127,
          4.02104,
          4.03045,
          4.04288,
          4.01549,
          4.04234,
          4.03064,
          4.02721,
          4.03826,
          4.04978,
          4.03034,
          4.04912,
          4.06099,
          4.04763,
          4.06026,
          4.06718,
          4.06307,
          4.09323,
          4.08425,
          4.08682,
          4.09586,
          4.1043,
          4.09871,
          4.11631,
          4.10564,
          4.09827,
          4.13494,
          4.11868,
          4.14389,
          4.15988,
          4.1457,
          4.15824,
          4.1582,
          4.16995,
          4.18101,
          4.20611,
          4.20677,
          4.19661,
          4.21027,
          4.23447,
          4.23365,
          4.26386,
          4.25202,
          4.2671,
          4.29983,
          4.28272,
          4.2952,
          4.32352,
          4.32331,
          4.35842,
          4.348,
          4.35895,
          4.36421,
          4.38937,
          4.38717,
          4.41848,
          4.43318,
          4.42322,
          4.45074,
          4.47686,
          4.49037,
          4.50491,
          4.50218,
          4.52488,
          4.54666,
          4.563,
          4.58143,
          4.58152,
          4.59854,
          4.62973,
          4.62754,
          4.66201,
          4.69745,
          4.69103,
          4.72046,
          4.73758,
          4.75264,
          4.78226,
          4.7747,
          4.80021,
          4.83912,
          4.8473,
          4.83081,
          4.89767,
          4.903,
          4.90466,
          4.92774,
          4.97719,
          4.99011,
          5.00559,
          5.0098,
          5.04685,
          5.03389,
          5.10969,
          5.12104,
          5.1163,
          5.13222,
          5.18302,
          5.22384,
          5.22017,
          5.23832,
          5.28998,
          5.29355,
          5.30646,
          5.37095,
          5.37435,
          5.3947,
          5.40311,
          5.47321,
          5.48576,
          5.46724,
          5.53353,
          5.55899,
          5.55086,
          5.59068,
          5.62581,
          5.63119,
          5.6505,
          5.69762,
          5.71342,
          5.75247,
          5.79175,
          5.76799,
          5.82034,
          5.82209,
          5.86408,
          5.92164,
          5.92808,
          5.96751,
          5.97673,
          6.00829,
          6.08309,
          6.10799,
          6.1056,
          6.14147,
          6.15199,
          6.17987,
          6.24231,
          6.34101,
          6.36153,
          6.39464,
          6.38198,
          6.39377,
          6.44128,
          6.46326,
          6.45331,
          6.59679,
          6.58135,
          6.57944,
          6.63943,
          6.70148,
          6.74194,
          6.74681,
          6.75401,
          6.77428,
          6.87954,
          6.90287,
          6.9256,
          6.93535,
          7.0009,
          7.01121,
          7.08542,
          7.08331,
          7.12199,
          7.2234,
          7.20022,
          7.24879,
          7.32527,
          7.34176,
          7.39416,
          7.41969,
          7.4531,
          7.48141,
          7.4694,
          7.59889,
          7.67836,
          7.68451,
          7.72635,
          7.7461,
          7.72402,
          7.80716,
          7.82588,
          7.83287,
          7.9153,
          8.02586,
          8.05268,
          8.11973,
          8.14099,
          8.18635,
          8.26632,
          8.27033,
          8.31986,
          8.3299,
          8.37705,
          8.4926,
          8.51565,
          8.53496,
          8.48854,
          8.56675,
          8.62562,
          8.69777,
          8.7588,
          8.85212,
          8.78767,
          8.91495,
          8.93405,
          9.04365,
          9.09435,
          9.07034
        ]
      ]
    }
  }
}